Filename	CLSOx100_5
Instrument name	5500-0018 (192.168.1.3)
Operator	mp933
rundate	10/25/2022
Sample name	CLSOx100_5
proceduresegments	Select Gas: Gas 2 ; Mass Flow  25.00 mL/min; Ramp 10.00 °C/min to 110.00 °C; Isothermal 30.0 min; Ramp 100.00 °C/min to 950.00 °C; Isothermal 10.0 min; Data Off ; Equilibrate 40.00 °C
[step]
Ramp 10.00 °C/min to 110.00 °C
Time	Temperature	Weight	Weight
min	°C	%	mg
0.003	35.22	97.7204	6.3341
0.012	35.20	96.8734	6.2792
0.020	35.18	96.8084	6.2750
0.028	35.16	96.8513	6.2778
0.037	35.14	96.8576	6.2782
0.045	35.12	96.8378	6.2769
0.053	35.11	96.8300	6.2764
0.062	35.09	96.8460	6.2774
0.070	35.07	96.8467	6.2775
0.078	35.05	96.8225	6.2759
0.087	35.04	96.8164	6.2755
0.095	35.02	96.8379	6.2769
0.103	35.00	96.8275	6.2762
0.112	34.99	96.8164	6.2755
0.120	34.97	96.8270	6.2762
0.128	34.96	96.8264	6.2762
0.137	34.94	96.8240	6.2760
0.145	34.92	96.8152	6.2754
0.153	34.91	96.8234	6.2760
0.162	34.89	96.8157	6.2755
0.170	34.88	96.8237	6.2760
0.178	34.86	96.8255	6.2761
0.187	34.85	96.8241	6.2760
0.195	34.84	96.8210	6.2758
0.203	34.82	96.8139	6.2753
0.212	34.81	96.8071	6.2749
0.220	34.80	96.8026	6.2746
0.228	34.78	96.8000	6.2744
0.237	34.77	96.7986	6.2744
0.245	34.76	96.7964	6.2742
0.253	34.75	96.7940	6.2741
0.262	34.74	96.7918	6.2739
0.270	34.73	96.7900	6.2738
0.278	34.72	96.7881	6.2737
0.287	34.71	96.7864	6.2736
0.295	34.70	96.7851	6.2735
0.303	34.69	96.7842	6.2734
0.312	34.69	96.7827	6.2733
0.320	34.68	96.7810	6.2732
0.328	34.68	96.7798	6.2731
0.337	34.68	96.7786	6.2731
0.345	34.68	96.7771	6.2730
0.353	34.69	96.7757	6.2729
0.362	34.69	96.7745	6.2728
0.370	34.70	96.7729	6.2727
0.378	34.71	96.7717	6.2726
0.387	34.73	96.7705	6.2725
0.395	34.74	96.7689	6.2724
0.403	34.76	96.7673	6.2723
0.412	34.79	96.7658	6.2722
0.420	34.81	96.7643	6.2721
0.428	34.84	96.7626	6.2720
0.437	34.88	96.7608	6.2719
0.445	34.91	96.7589	6.2718
0.453	34.95	96.7569	6.2716
0.462	34.99	96.7549	6.2715
0.470	35.04	96.7529	6.2714
0.478	35.08	96.7507	6.2712
0.487	35.13	96.7485	6.2711
0.495	35.19	96.7460	6.2709
0.503	35.24	96.7435	6.2708
0.512	35.30	96.7412	6.2706
0.520	35.36	96.7386	6.2705
0.528	35.42	96.7357	6.2703
0.537	35.49	96.7329	6.2701
0.545	35.55	96.7301	6.2699
0.553	35.62	96.7271	6.2697
0.562	35.69	96.7241	6.2695
0.570	35.76	96.7211	6.2693
0.578	35.83	96.7179	6.2691
0.587	35.90	96.7146	6.2689
0.595	35.98	96.7115	6.2687
0.603	36.05	96.7084	6.2685
0.612	36.13	96.7049	6.2683
0.620	36.21	96.7015	6.2681
0.628	36.28	96.6982	6.2678
0.637	36.36	96.6948	6.2676
0.645	36.44	96.6913	6.2674
0.653	36.52	96.6877	6.2672
0.662	36.60	96.6842	6.2669
0.670	36.68	96.6806	6.2667
0.678	36.76	96.6770	6.2665
0.687	36.84	96.6733	6.2662
0.695	36.92	96.6696	6.2660
0.703	37.00	96.6657	6.2657
0.712	37.08	96.6618	6.2655
0.720	37.16	96.6583	6.2653
0.728	37.24	96.6546	6.2650
0.737	37.32	96.6506	6.2648
0.745	37.40	96.6466	6.2645
0.753	37.48	96.6429	6.2643
0.762	37.56	96.6391	6.2640
0.770	37.64	96.6352	6.2638
0.778	37.72	96.6314	6.2635
0.787	37.80	96.6277	6.2633
0.795	37.88	96.6238	6.2630
0.803	37.96	96.6200	6.2628
0.812	38.04	96.6162	6.2625
0.820	38.12	96.6124	6.2623
0.828	38.20	96.6085	6.2620
0.837	38.28	96.6048	6.2618
0.845	38.37	96.6010	6.2615
0.853	38.45	96.5971	6.2613
0.862	38.53	96.5932	6.2610
0.870	38.61	96.5895	6.2608
0.878	38.69	96.5859	6.2606
0.887	38.77	96.5818	6.2603
0.895	38.85	96.5778	6.2600
0.903	38.93	96.5740	6.2598
0.912	39.02	96.5701	6.2595
0.920	39.10	96.5662	6.2593
0.928	39.18	96.5624	6.2590
0.937	39.26	96.5585	6.2588
0.945	39.34	96.5546	6.2585
0.953	39.43	96.5507	6.2583
0.962	39.51	96.5470	6.2580
0.970	39.59	96.5431	6.2578
0.978	39.68	96.5391	6.2575
0.987	39.76	96.5352	6.2573
0.995	39.84	96.5313	6.2570
1.003	39.93	96.5274	6.2568
1.012	40.01	96.5234	6.2565
1.020	40.10	96.5196	6.2563
1.028	40.18	96.5158	6.2560
1.037	40.26	96.5118	6.2558
1.045	40.35	96.5078	6.2555
1.053	40.43	96.5040	6.2553
1.062	40.52	96.5000	6.2550
1.070	40.60	96.4958	6.2547
1.078	40.69	96.4917	6.2545
1.087	40.77	96.4878	6.2542
1.095	40.86	96.4838	6.2539
1.103	40.95	96.4798	6.2537
1.112	41.03	96.4756	6.2534
1.120	41.12	96.4716	6.2532
1.128	41.20	96.4674	6.2529
1.137	41.29	96.4633	6.2526
1.145	41.37	96.4595	6.2524
1.153	41.46	96.4556	6.2521
1.162	41.55	96.4514	6.2518
1.170	41.63	96.4473	6.2516
1.178	41.72	96.4433	6.2513
1.187	41.80	96.4391	6.2511
1.195	41.89	96.4350	6.2508
1.203	41.98	96.4310	6.2505
1.212	42.06	96.4269	6.2503
1.220	42.15	96.4227	6.2500
1.228	42.23	96.4186	6.2497
1.237	42.32	96.4146	6.2495
1.245	42.41	96.4104	6.2492
1.253	42.49	96.4062	6.2489
1.262	42.58	96.4021	6.2487
1.270	42.66	96.3979	6.2484
1.278	42.75	96.3936	6.2481
1.287	42.83	96.3894	6.2478
1.295	42.92	96.3853	6.2476
1.303	43.01	96.3809	6.2473
1.312	43.09	96.3766	6.2470
1.320	43.18	96.3724	6.2467
1.328	43.26	96.3683	6.2465
1.337	43.35	96.3643	6.2462
1.345	43.43	96.3601	6.2459
1.353	43.52	96.3559	6.2457
1.362	43.60	96.3517	6.2454
1.370	43.69	96.3474	6.2451
1.378	43.77	96.3432	6.2448
1.387	43.86	96.3390	6.2446
1.395	43.94	96.3348	6.2443
1.403	44.03	96.3305	6.2440
1.412	44.11	96.3262	6.2437
1.420	44.20	96.3220	6.2435
1.428	44.28	96.3176	6.2432
1.437	44.37	96.3133	6.2429
1.445	44.45	96.3090	6.2426
1.453	44.54	96.3047	6.2423
1.462	44.62	96.3005	6.2421
1.470	44.71	96.2961	6.2418
1.478	44.79	96.2919	6.2415
1.487	44.88	96.2876	6.2412
1.495	44.96	96.2833	6.2410
1.503	45.05	96.2792	6.2407
1.512	45.13	96.2750	6.2404
1.520	45.22	96.2707	6.2401
1.528	45.30	96.2665	6.2399
1.537	45.39	96.2624	6.2396
1.545	45.47	96.2583	6.2393
1.553	45.56	96.2539	6.2390
1.562	45.64	96.2496	6.2388
1.570	45.73	96.2452	6.2385
1.578	45.81	96.2407	6.2382
1.587	45.90	96.2363	6.2379
1.595	45.98	96.2320	6.2376
1.603	46.07	96.2277	6.2373
1.612	46.15	96.2235	6.2371
1.620	46.24	96.2192	6.2368
1.628	46.32	96.2150	6.2365
1.637	46.41	96.2107	6.2362
1.645	46.49	96.2063	6.2360
1.653	46.58	96.2022	6.2357
1.662	46.66	96.1979	6.2354
1.670	46.75	96.1936	6.2351
1.678	46.83	96.1892	6.2348
1.687	46.92	96.1848	6.2346
1.695	47.00	96.1803	6.2343
1.703	47.09	96.1760	6.2340
1.712	47.17	96.1717	6.2337
1.720	47.26	96.1674	6.2334
1.728	47.34	96.1630	6.2332
1.737	47.43	96.1586	6.2329
1.745	47.51	96.1542	6.2326
1.753	47.60	96.1500	6.2323
1.762	47.68	96.1456	6.2320
1.770	47.77	96.1412	6.2317
1.778	47.85	96.1369	6.2315
1.787	47.94	96.1327	6.2312
1.795	48.02	96.1283	6.2309
1.803	48.11	96.1238	6.2306
1.812	48.19	96.1194	6.2303
1.820	48.28	96.1149	6.2300
1.828	48.36	96.1105	6.2297
1.837	48.45	96.1062	6.2295
1.845	48.53	96.1018	6.2292
1.853	48.62	96.0975	6.2289
1.862	48.70	96.0931	6.2286
1.870	48.79	96.0886	6.2283
1.878	48.87	96.0842	6.2280
1.887	48.96	96.0799	6.2278
1.895	49.04	96.0755	6.2275
1.903	49.13	96.0711	6.2272
1.912	49.22	96.0667	6.2269
1.920	49.30	96.0622	6.2266
1.928	49.39	96.0578	6.2263
1.937	49.47	96.0534	6.2260
1.945	49.56	96.0490	6.2258
1.953	49.64	96.0446	6.2255
1.962	49.73	96.0403	6.2252
1.970	49.81	96.0360	6.2249
1.978	49.90	96.0316	6.2246
1.987	49.98	96.0271	6.2243
1.995	50.07	96.0227	6.2241
2.003	50.15	96.0182	6.2238
2.012	50.24	96.0139	6.2235
2.020	50.32	96.0094	6.2232
2.028	50.41	96.0051	6.2229
2.037	50.49	96.0008	6.2226
2.045	50.58	95.9964	6.2224
2.053	50.66	95.9920	6.2221
2.062	50.75	95.9876	6.2218
2.070	50.83	95.9832	6.2215
2.078	50.91	95.9788	6.2212
2.087	51.00	95.9746	6.2209
2.095	51.08	95.9702	6.2207
2.103	51.17	95.9659	6.2204
2.112	51.25	95.9616	6.2201
2.120	51.34	95.9572	6.2198
2.128	51.42	95.9529	6.2195
2.137	51.51	95.9485	6.2192
2.145	51.59	95.9441	6.2190
2.153	51.67	95.9398	6.2187
2.162	51.76	95.9355	6.2184
2.170	51.84	95.9312	6.2181
2.178	51.93	95.9268	6.2178
2.187	52.01	95.9224	6.2176
2.195	52.10	95.9180	6.2173
2.203	52.18	95.9137	6.2170
2.212	52.26	95.9094	6.2167
2.220	52.35	95.9051	6.2164
2.228	52.43	95.9009	6.2162
2.237	52.52	95.8966	6.2159
2.245	52.60	95.8922	6.2156
2.253	52.68	95.8879	6.2153
2.262	52.77	95.8836	6.2150
2.270	52.85	95.8793	6.2148
2.278	52.94	95.8750	6.2145
2.287	53.02	95.8708	6.2142
2.295	53.10	95.8666	6.2139
2.303	53.19	95.8624	6.2137
2.312	53.27	95.8580	6.2134
2.320	53.36	95.8537	6.2131
2.328	53.44	95.8494	6.2128
2.337	53.53	95.8452	6.2125
2.345	53.61	95.8409	6.2123
2.353	53.69	95.8367	6.2120
2.362	53.78	95.8325	6.2117
2.370	53.86	95.8284	6.2115
2.378	53.95	95.8240	6.2112
2.387	54.03	95.8198	6.2109
2.395	54.12	95.8157	6.2106
2.403	54.20	95.8114	6.2104
2.412	54.28	95.8071	6.2101
2.420	54.37	95.8029	6.2098
2.428	54.45	95.7988	6.2095
2.437	54.54	95.7947	6.2093
2.445	54.62	95.7905	6.2090
2.453	54.71	95.7864	6.2087
2.462	54.79	95.7823	6.2085
2.470	54.88	95.7782	6.2082
2.478	54.96	95.7739	6.2079
2.487	55.04	95.7697	6.2077
2.495	55.13	95.7655	6.2074
2.503	55.21	95.7613	6.2071
2.512	55.30	95.7571	6.2068
2.520	55.38	95.7530	6.2066
2.528	55.47	95.7488	6.2063
2.537	55.55	95.7447	6.2060
2.545	55.63	95.7406	6.2058
2.553	55.72	95.7364	6.2055
2.562	55.80	95.7323	6.2052
2.570	55.89	95.7282	6.2050
2.578	55.97	95.7239	6.2047
2.587	56.05	95.7197	6.2044
2.595	56.14	95.7156	6.2042
2.603	56.22	95.7115	6.2039
2.612	56.31	95.7074	6.2036
2.620	56.39	95.7033	6.2034
2.628	56.47	95.6992	6.2031
2.637	56.56	95.6952	6.2028
2.645	56.64	95.6912	6.2026
2.653	56.73	95.6871	6.2023
2.662	56.81	95.6830	6.2020
2.670	56.89	95.6789	6.2018
2.678	56.98	95.6748	6.2015
2.687	57.06	95.6708	6.2012
2.695	57.15	95.6667	6.2010
2.703	57.23	95.6628	6.2007
2.712	57.31	95.6588	6.2005
2.720	57.40	95.6548	6.2002
2.728	57.48	95.6508	6.2000
2.737	57.57	95.6467	6.1997
2.745	57.65	95.6427	6.1994
2.753	57.73	95.6388	6.1992
2.762	57.82	95.6347	6.1989
2.770	57.90	95.6306	6.1986
2.778	57.99	95.6267	6.1984
2.787	58.07	95.6227	6.1981
2.795	58.15	95.6187	6.1979
2.803	58.24	95.6150	6.1976
2.812	58.32	95.6113	6.1974
2.820	58.40	95.6073	6.1971
2.828	58.49	95.6033	6.1969
2.837	58.57	95.5993	6.1966
2.845	58.66	95.5952	6.1963
2.853	58.74	95.5912	6.1961
2.862	58.82	95.5873	6.1958
2.870	58.91	95.5835	6.1956
2.878	58.99	95.5797	6.1953
2.887	59.07	95.5760	6.1951
2.895	59.16	95.5721	6.1948
2.903	59.24	95.5682	6.1946
2.912	59.33	95.5644	6.1944
2.920	59.41	95.5606	6.1941
2.928	59.49	95.5567	6.1939
2.937	59.58	95.5528	6.1936
2.945	59.66	95.5489	6.1933
2.953	59.74	95.5450	6.1931
2.962	59.83	95.5413	6.1929
2.970	59.91	95.5376	6.1926
2.978	60.00	95.5339	6.1924
2.987	60.08	95.5300	6.1921
2.995	60.16	95.5261	6.1919
3.003	60.25	95.5225	6.1916
3.012	60.33	95.5187	6.1914
3.020	60.41	95.5150	6.1912
3.028	60.50	95.5113	6.1909
3.037	60.58	95.5076	6.1907
3.045	60.67	95.5039	6.1904
3.053	60.75	95.5002	6.1902
3.062	60.83	95.4965	6.1899
3.070	60.92	95.4928	6.1897
3.078	61.00	95.4890	6.1895
3.087	61.08	95.4852	6.1892
3.095	61.17	95.4816	6.1890
3.103	61.25	95.4779	6.1887
3.112	61.33	95.4742	6.1885
3.120	61.42	95.4706	6.1883
3.128	61.50	95.4670	6.1880
3.137	61.59	95.4635	6.1878
3.145	61.67	95.4598	6.1876
3.153	61.75	95.4560	6.1873
3.162	61.84	95.4524	6.1871
3.170	61.92	95.4488	6.1869
3.178	62.00	95.4452	6.1866
3.187	62.09	95.4416	6.1864
3.195	62.17	95.4380	6.1862
3.203	62.26	95.4342	6.1859
3.212	62.34	95.4306	6.1857
3.220	62.42	95.4271	6.1854
3.228	62.51	95.4235	6.1852
3.237	62.59	95.4200	6.1850
3.245	62.68	95.4166	6.1848
3.253	62.76	95.4130	6.1845
3.262	62.84	95.4093	6.1843
3.270	62.93	95.4057	6.1841
3.278	63.01	95.4022	6.1838
3.287	63.09	95.3988	6.1836
3.295	63.18	95.3954	6.1834
3.303	63.26	95.3920	6.1832
3.312	63.35	95.3886	6.1830
3.320	63.43	95.3850	6.1827
3.328	63.51	95.3816	6.1825
3.337	63.60	95.3782	6.1823
3.345	63.68	95.3748	6.1821
3.353	63.76	95.3714	6.1818
3.362	63.85	95.3679	6.1816
3.370	63.93	95.3646	6.1814
3.378	64.01	95.3611	6.1812
3.387	64.10	95.3577	6.1810
3.395	64.18	95.3544	6.1807
3.403	64.26	95.3509	6.1805
3.412	64.35	95.3474	6.1803
3.420	64.43	95.3441	6.1801
3.428	64.51	95.3408	6.1799
3.437	64.59	95.3375	6.1796
3.445	64.68	95.3341	6.1794
3.453	64.76	95.3306	6.1792
3.462	64.84	95.3273	6.1790
3.470	64.93	95.3240	6.1788
3.478	65.01	95.3205	6.1785
3.487	65.09	95.3170	6.1783
3.495	65.17	95.3137	6.1781
3.503	65.26	95.3105	6.1779
3.512	65.34	95.3071	6.1777
3.520	65.42	95.3037	6.1775
3.528	65.51	95.3004	6.1772
3.537	65.59	95.2973	6.1770
3.545	65.67	95.2941	6.1768
3.553	65.75	95.2910	6.1766
3.562	65.84	95.2879	6.1764
3.570	65.92	95.2847	6.1762
3.578	66.00	95.2815	6.1760
3.587	66.09	95.2782	6.1758
3.595	66.17	95.2750	6.1756
3.603	66.26	95.2718	6.1754
3.612	66.34	95.2687	6.1752
3.620	66.42	95.2657	6.1750
3.628	66.51	95.2626	6.1748
3.637	66.59	95.2593	6.1746
3.645	66.67	95.2560	6.1744
3.653	66.76	95.2528	6.1742
3.662	66.84	95.2496	6.1739
3.670	66.93	95.2465	6.1737
3.678	67.01	95.2434	6.1735
3.687	67.09	95.2403	6.1733
3.695	67.18	95.2373	6.1731
3.703	67.26	95.2340	6.1729
3.712	67.35	95.2308	6.1727
3.720	67.43	95.2277	6.1725
3.728	67.51	95.2246	6.1723
3.737	67.60	95.2215	6.1721
3.745	67.68	95.2187	6.1719
3.753	67.77	95.2155	6.1717
3.762	67.85	95.2122	6.1715
3.770	67.93	95.2090	6.1713
3.778	68.02	95.2060	6.1711
3.787	68.10	95.2029	6.1709
3.795	68.18	95.1998	6.1707
3.803	68.27	95.1967	6.1705
3.812	68.35	95.1936	6.1703
3.820	68.44	95.1905	6.1701
3.828	68.52	95.1875	6.1699
3.837	68.61	95.1843	6.1697
3.845	68.69	95.1812	6.1695
3.853	68.77	95.1782	6.1693
3.862	68.86	95.1752	6.1691
3.870	68.94	95.1720	6.1689
3.878	69.03	95.1690	6.1687
3.887	69.11	95.1660	6.1685
3.895	69.19	95.1630	6.1683
3.903	69.28	95.1600	6.1681
3.912	69.36	95.1572	6.1680
3.920	69.45	95.1542	6.1678
3.928	69.53	95.1513	6.1676
3.937	69.62	95.1482	6.1674
3.945	69.70	95.1454	6.1672
3.953	69.78	95.1427	6.1670
3.962	69.87	95.1398	6.1668
3.970	69.95	95.1368	6.1666
3.978	70.04	95.1340	6.1665
3.987	70.12	95.1311	6.1663
3.995	70.20	95.1283	6.1661
4.003	70.29	95.1254	6.1659
4.012	70.37	95.1225	6.1657
4.020	70.46	95.1198	6.1655
4.028	70.54	95.1172	6.1654
4.037	70.62	95.1144	6.1652
4.045	70.71	95.1113	6.1650
4.053	70.79	95.1084	6.1648
4.062	70.87	95.1055	6.1646
4.070	70.96	95.1027	6.1644
4.078	71.04	95.1000	6.1643
4.087	71.12	95.0973	6.1641
4.095	71.20	95.0945	6.1639
4.103	71.29	95.0918	6.1637
4.112	71.37	95.0892	6.1635
4.120	71.45	95.0865	6.1634
4.128	71.54	95.0838	6.1632
4.137	71.62	95.0809	6.1630
4.145	71.70	95.0781	6.1628
4.153	71.79	95.0753	6.1627
4.162	71.87	95.0726	6.1625
4.170	71.95	95.0699	6.1623
4.178	72.03	95.0673	6.1621
4.187	72.12	95.0646	6.1620
4.195	72.20	95.0621	6.1618
4.203	72.28	95.0596	6.1616
4.212	72.36	95.0571	6.1615
4.220	72.45	95.0546	6.1613
4.228	72.53	95.0520	6.1611
4.237	72.61	95.0494	6.1610
4.245	72.69	95.0468	6.1608
4.253	72.78	95.0443	6.1606
4.262	72.86	95.0418	6.1605
4.270	72.94	95.0394	6.1603
4.278	73.03	95.0367	6.1601
4.287	73.11	95.0341	6.1600
4.295	73.19	95.0314	6.1598
4.303	73.27	95.0288	6.1596
4.312	73.36	95.0263	6.1595
4.320	73.44	95.0238	6.1593
4.328	73.52	95.0213	6.1591
4.337	73.61	95.0189	6.1590
4.345	73.69	95.0164	6.1588
4.353	73.77	95.0138	6.1587
4.362	73.86	95.0113	6.1585
4.370	73.94	95.0087	6.1583
4.378	74.02	95.0062	6.1582
4.387	74.11	95.0039	6.1580
4.395	74.19	95.0016	6.1579
4.403	74.27	94.9992	6.1577
4.412	74.36	94.9967	6.1576
4.420	74.44	94.9944	6.1574
4.428	74.52	94.9921	6.1573
4.437	74.61	94.9898	6.1571
4.445	74.69	94.9873	6.1569
4.453	74.78	94.9849	6.1568
4.462	74.86	94.9825	6.1566
4.470	74.94	94.9802	6.1565
4.478	75.03	94.9778	6.1563
4.487	75.11	94.9755	6.1562
4.495	75.19	94.9732	6.1560
4.503	75.28	94.9708	6.1559
4.512	75.36	94.9683	6.1557
4.520	75.44	94.9659	6.1556
4.528	75.53	94.9637	6.1554
4.537	75.61	94.9615	6.1553
4.545	75.69	94.9593	6.1551
4.553	75.78	94.9570	6.1550
4.562	75.86	94.9545	6.1548
4.570	75.94	94.9520	6.1547
4.578	76.03	94.9496	6.1545
4.587	76.11	94.9472	6.1543
4.595	76.19	94.9449	6.1542
4.603	76.28	94.9426	6.1540
4.612	76.36	94.9403	6.1539
4.620	76.44	94.9380	6.1537
4.628	76.53	94.9359	6.1536
4.637	76.61	94.9337	6.1535
4.645	76.69	94.9313	6.1533
4.653	76.77	94.9290	6.1532
4.662	76.86	94.9269	6.1530
4.670	76.94	94.9247	6.1529
4.678	77.02	94.9226	6.1527
4.687	77.11	94.9203	6.1526
4.695	77.19	94.9182	6.1525
4.703	77.27	94.9160	6.1523
4.712	77.36	94.9138	6.1522
4.720	77.44	94.9117	6.1520
4.728	77.52	94.9095	6.1519
4.737	77.61	94.9073	6.1518
4.745	77.69	94.9052	6.1516
4.753	77.77	94.9032	6.1515
4.762	77.86	94.9011	6.1514
4.770	77.94	94.8990	6.1512
4.778	78.02	94.8970	6.1511
4.787	78.11	94.8948	6.1509
4.795	78.19	94.8927	6.1508
4.803	78.27	94.8905	6.1507
4.812	78.36	94.8883	6.1505
4.820	78.44	94.8862	6.1504
4.828	78.52	94.8841	6.1503
4.837	78.61	94.8819	6.1501
4.845	78.69	94.8798	6.1500
4.853	78.78	94.8776	6.1498
4.862	78.86	94.8755	6.1497
4.870	78.94	94.8734	6.1496
4.878	79.03	94.8714	6.1494
4.887	79.11	94.8692	6.1493
4.895	79.19	94.8671	6.1492
4.903	79.28	94.8650	6.1490
4.912	79.36	94.8630	6.1489
4.920	79.44	94.8611	6.1488
4.928	79.53	94.8590	6.1486
4.937	79.61	94.8569	6.1485
4.945	79.69	94.8550	6.1484
4.953	79.78	94.8531	6.1482
4.962	79.86	94.8512	6.1481
4.970	79.94	94.8492	6.1480
4.978	80.03	94.8472	6.1479
4.987	80.11	94.8452	6.1477
4.995	80.19	94.8433	6.1476
5.003	80.28	94.8414	6.1475
5.012	80.36	94.8395	6.1474
5.020	80.44	94.8376	6.1472
5.028	80.53	94.8357	6.1471
5.037	80.61	94.8338	6.1470
5.045	80.69	94.8318	6.1469
5.053	80.78	94.8299	6.1467
5.062	80.86	94.8280	6.1466
5.070	80.94	94.8260	6.1465
5.078	81.02	94.8240	6.1464
5.087	81.11	94.8220	6.1462
5.095	81.19	94.8202	6.1461
5.103	81.27	94.8183	6.1460
5.112	81.36	94.8163	6.1459
5.120	81.44	94.8144	6.1457
5.128	81.52	94.8127	6.1456
5.137	81.61	94.8108	6.1455
5.145	81.69	94.8090	6.1454
5.153	81.77	94.8071	6.1453
5.162	81.85	94.8053	6.1451
5.170	81.94	94.8037	6.1450
5.178	82.02	94.8018	6.1449
5.187	82.10	94.8000	6.1448
5.195	82.19	94.7982	6.1447
5.203	82.27	94.7964	6.1446
5.212	82.35	94.7946	6.1445
5.220	82.44	94.7930	6.1444
5.228	82.52	94.7912	6.1442
5.237	82.60	94.7893	6.1441
5.245	82.69	94.7876	6.1440
5.253	82.77	94.7858	6.1439
5.262	82.85	94.7840	6.1438
5.270	82.94	94.7823	6.1437
5.278	83.02	94.7805	6.1435
5.287	83.10	94.7786	6.1434
5.295	83.19	94.7769	6.1433
5.303	83.27	94.7752	6.1432
5.312	83.35	94.7735	6.1431
5.320	83.43	94.7720	6.1430
5.328	83.52	94.7702	6.1429
5.337	83.60	94.7685	6.1428
5.345	83.68	94.7668	6.1427
5.353	83.77	94.7652	6.1425
5.362	83.85	94.7637	6.1424
5.370	83.93	94.7620	6.1423
5.378	84.02	94.7604	6.1422
5.387	84.10	94.7588	6.1421
5.395	84.19	94.7570	6.1420
5.403	84.27	94.7553	6.1419
5.412	84.35	94.7537	6.1418
5.420	84.44	94.7520	6.1417
5.428	84.52	94.7504	6.1416
5.437	84.60	94.7488	6.1415
5.445	84.69	94.7471	6.1414
5.453	84.77	94.7456	6.1413
5.462	84.85	94.7440	6.1412
5.470	84.94	94.7424	6.1411
5.478	85.02	94.7409	6.1410
5.487	85.10	94.7393	6.1409
5.495	85.19	94.7376	6.1408
5.503	85.27	94.7360	6.1407
5.512	85.35	94.7345	6.1406
5.520	85.44	94.7330	6.1405
5.528	85.52	94.7314	6.1404
5.537	85.60	94.7298	6.1403
5.545	85.69	94.7282	6.1402
5.553	85.77	94.7266	6.1400
5.562	85.85	94.7252	6.1400
5.570	85.94	94.7237	6.1399
5.578	86.02	94.7222	6.1398
5.587	86.11	94.7206	6.1397
5.595	86.19	94.7190	6.1396
5.603	86.27	94.7174	6.1395
5.612	86.36	94.7159	6.1394
5.620	86.44	94.7145	6.1393
5.628	86.52	94.7131	6.1392
5.637	86.61	94.7117	6.1391
5.645	86.69	94.7102	6.1390
5.653	86.77	94.7087	6.1389
5.662	86.86	94.7073	6.1388
5.670	86.94	94.7058	6.1387
5.678	87.02	94.7043	6.1386
5.687	87.10	94.7029	6.1385
5.695	87.19	94.7014	6.1384
5.703	87.27	94.6999	6.1383
5.712	87.35	94.6984	6.1382
5.720	87.44	94.6969	6.1381
5.728	87.52	94.6955	6.1380
5.737	87.60	94.6940	6.1379
5.745	87.69	94.6926	6.1378
5.753	87.77	94.6911	6.1377
5.762	87.85	94.6897	6.1377
5.770	87.94	94.6882	6.1376
5.778	88.02	94.6867	6.1375
5.787	88.10	94.6855	6.1374
5.795	88.18	94.6840	6.1373
5.803	88.27	94.6826	6.1372
5.812	88.35	94.6812	6.1371
5.820	88.43	94.6799	6.1370
5.828	88.52	94.6786	6.1369
5.837	88.60	94.6771	6.1368
5.845	88.68	94.6758	6.1368
5.853	88.76	94.6744	6.1367
5.862	88.85	94.6733	6.1366
5.870	88.93	94.6723	6.1365
5.878	89.01	94.6708	6.1364
5.887	89.10	94.6691	6.1363
5.895	89.18	94.6676	6.1362
5.903	89.26	94.6663	6.1361
5.912	89.35	94.6649	6.1360
5.920	89.43	94.6636	6.1360
5.928	89.51	94.6624	6.1359
5.937	89.60	94.6611	6.1358
5.945	89.68	94.6597	6.1357
5.953	89.76	94.6583	6.1356
5.962	89.84	94.6569	6.1355
5.970	89.93	94.6556	6.1354
5.978	90.01	94.6544	6.1354
5.987	90.09	94.6530	6.1353
5.995	90.18	94.6518	6.1352
6.003	90.26	94.6506	6.1351
6.012	90.34	94.6494	6.1350
6.020	90.43	94.6481	6.1350
6.028	90.51	94.6468	6.1349
6.037	90.59	94.6455	6.1348
6.045	90.68	94.6441	6.1347
6.053	90.76	94.6429	6.1346
6.062	90.84	94.6417	6.1345
6.070	90.93	94.6407	6.1345
6.078	91.01	94.6396	6.1344
6.087	91.09	94.6383	6.1343
6.095	91.18	94.6372	6.1343
6.103	91.26	94.6360	6.1342
6.112	91.35	94.6347	6.1341
6.120	91.43	94.6334	6.1340
6.128	91.51	94.6322	6.1339
6.137	91.60	94.6309	6.1338
6.145	91.68	94.6297	6.1338
6.153	91.77	94.6283	6.1337
6.162	91.85	94.6272	6.1336
6.170	91.93	94.6261	6.1335
6.178	92.02	94.6250	6.1335
6.187	92.10	94.6239	6.1334
6.195	92.18	94.6227	6.1333
6.203	92.27	94.6214	6.1332
6.212	92.35	94.6202	6.1332
6.220	92.43	94.6191	6.1331
6.228	92.52	94.6179	6.1330
6.237	92.60	94.6169	6.1329
6.245	92.68	94.6157	6.1329
6.253	92.76	94.6145	6.1328
6.262	92.85	94.6133	6.1327
6.270	92.93	94.6121	6.1326
6.278	93.01	94.6111	6.1326
6.287	93.09	94.6099	6.1325
6.295	93.18	94.6089	6.1324
6.303	93.26	94.6078	6.1323
6.312	93.34	94.6066	6.1323
6.320	93.42	94.6054	6.1322
6.328	93.50	94.6043	6.1321
6.337	93.59	94.6035	6.1321
6.345	93.67	94.6026	6.1320
6.353	93.75	94.6016	6.1319
6.362	93.83	94.6005	6.1319
6.370	93.91	94.5994	6.1318
6.378	94.00	94.5981	6.1317
6.387	94.08	94.5968	6.1316
6.395	94.16	94.5957	6.1316
6.403	94.24	94.5948	6.1315
6.412	94.33	94.5938	6.1314
6.420	94.41	94.5925	6.1314
6.428	94.49	94.5915	6.1313
6.437	94.57	94.5904	6.1312
6.445	94.66	94.5895	6.1312
6.453	94.74	94.5885	6.1311
6.462	94.82	94.5874	6.1310
6.470	94.91	94.5864	6.1310
6.478	94.99	94.5853	6.1309
6.487	95.07	94.5843	6.1308
6.495	95.15	94.5834	6.1308
6.503	95.24	94.5824	6.1307
6.512	95.32	94.5812	6.1306
6.520	95.41	94.5802	6.1306
6.528	95.49	94.5792	6.1305
6.537	95.57	94.5783	6.1304
6.545	95.66	94.5773	6.1304
6.553	95.74	94.5765	6.1303
6.562	95.82	94.5757	6.1303
6.570	95.91	94.5747	6.1302
6.578	95.99	94.5737	6.1301
6.587	96.07	94.5728	6.1301
6.595	96.16	94.5718	6.1300
6.603	96.24	94.5707	6.1299
6.612	96.33	94.5697	6.1299
6.620	96.41	94.5687	6.1298
6.628	96.49	94.5679	6.1298
6.637	96.58	94.5669	6.1297
6.645	96.66	94.5660	6.1296
6.653	96.75	94.5652	6.1296
6.662	96.83	94.5646	6.1295
6.670	96.91	94.5637	6.1295
6.678	97.00	94.5628	6.1294
6.687	97.08	94.5618	6.1294
6.695	97.16	94.5607	6.1293
6.703	97.25	94.5599	6.1292
6.712	97.33	94.5591	6.1292
6.720	97.41	94.5582	6.1291
6.728	97.50	94.5573	6.1291
6.737	97.58	94.5564	6.1290
6.745	97.66	94.5556	6.1290
6.753	97.75	94.5548	6.1289
6.762	97.83	94.5540	6.1289
6.770	97.91	94.5531	6.1288
6.778	98.00	94.5523	6.1288
6.787	98.08	94.5516	6.1287
6.795	98.16	94.5506	6.1286
6.803	98.25	94.5496	6.1286
6.812	98.33	94.5490	6.1285
6.820	98.41	94.5483	6.1285
6.828	98.50	94.5474	6.1284
6.837	98.58	94.5466	6.1284
6.845	98.66	94.5459	6.1283
6.853	98.75	94.5451	6.1283
6.862	98.83	94.5443	6.1282
6.870	98.91	94.5435	6.1282
6.878	98.99	94.5427	6.1281
6.887	99.08	94.5419	6.1281
6.895	99.16	94.5411	6.1280
6.903	99.24	94.5405	6.1280
6.912	99.33	94.5396	6.1279
6.920	99.41	94.5387	6.1279
6.928	99.49	94.5378	6.1278
6.937	99.58	94.5370	6.1278
6.945	99.66	94.5361	6.1277
6.953	99.74	94.5353	6.1276
6.962	99.82	94.5345	6.1276
6.970	99.91	94.5338	6.1275
6.978	99.99	94.5331	6.1275
6.987	100.07	94.5323	6.1274
6.995	100.16	94.5314	6.1274
7.003	100.24	94.5306	6.1273
7.012	100.32	94.5298	6.1273
7.020	100.41	94.5290	6.1272
7.028	100.49	94.5283	6.1272
7.037	100.57	94.5276	6.1271
7.045	100.66	94.5269	6.1271
7.053	100.74	94.5261	6.1270
7.062	100.82	94.5253	6.1270
7.070	100.91	94.5246	6.1270
7.078	100.99	94.5238	6.1269
7.087	101.07	94.5230	6.1268
7.095	101.15	94.5223	6.1268
7.103	101.24	94.5215	6.1268
7.112	101.32	94.5208	6.1267
7.120	101.40	94.5202	6.1267
7.128	101.49	94.5194	6.1266
7.137	101.57	94.5186	6.1266
7.145	101.65	94.5180	6.1265
7.153	101.74	94.5173	6.1265
7.162	101.82	94.5166	6.1264
7.170	101.90	94.5159	6.1264
7.178	101.99	94.5152	6.1263
7.187	102.07	94.5145	6.1263
7.195	102.15	94.5138	6.1263
7.203	102.24	94.5131	6.1262
7.212	102.32	94.5124	6.1262
7.220	102.40	94.5118	6.1261
7.228	102.49	94.5109	6.1261
7.237	102.57	94.5101	6.1260
7.245	102.65	94.5094	6.1260
7.253	102.74	94.5088	6.1259
7.262	102.82	94.5082	6.1259
7.270	102.90	94.5076	6.1259
7.278	102.99	94.5069	6.1258
7.287	103.07	94.5061	6.1258
7.295	103.15	94.5056	6.1257
7.303	103.24	94.5049	6.1257
7.312	103.32	94.5043	6.1256
7.320	103.40	94.5036	6.1256
7.328	103.48	94.5030	6.1256
7.337	103.57	94.5024	6.1255
7.345	103.65	94.5019	6.1255
7.353	103.73	94.5013	6.1254
7.362	103.82	94.5007	6.1254
7.370	103.90	94.5001	6.1254
7.378	103.98	94.4994	6.1253
7.387	104.07	94.4988	6.1253
7.395	104.15	94.4982	6.1252
7.403	104.23	94.4975	6.1252
7.412	104.32	94.4968	6.1252
7.420	104.40	94.4963	6.1251
7.428	104.48	94.4958	6.1251
7.437	104.57	94.4952	6.1250
7.445	104.65	94.4945	6.1250
7.453	104.73	94.4939	6.1250
7.462	104.82	94.4934	6.1249
7.470	104.90	94.4929	6.1249
7.478	104.98	94.4925	6.1249
7.487	105.07	94.4919	6.1248
7.495	105.15	94.4913	6.1248
7.503	105.23	94.4908	6.1248
7.512	105.32	94.4904	6.1247
7.520	105.40	94.4897	6.1247
7.528	105.48	94.4893	6.1247
7.537	105.57	94.4888	6.1246
7.545	105.65	94.4880	6.1246
7.553	105.73	94.4873	6.1245

[step]
Isothermal 30.0 min
Time	Temperature	Weight	Weight
min	°C	%	mg
7.562	105.81	94.4866	6.1245
7.570	105.90	94.4860	6.1245
7.578	105.98	94.4854	6.1244
7.587	106.06	94.4848	6.1244
7.595	106.15	94.4843	6.1243
7.603	106.23	94.4838	6.1243
7.612	106.31	94.4833	6.1243
7.620	106.39	94.4826	6.1242
7.628	106.47	94.4819	6.1242
7.637	106.55	94.4813	6.1241
7.645	106.63	94.4806	6.1241
7.653	106.71	94.4799	6.1241
7.662	106.78	94.4791	6.1240
7.670	106.86	94.4784	6.1240
7.678	106.93	94.4777	6.1239
7.687	107.00	94.4771	6.1239
7.695	107.07	94.4764	6.1238
7.703	107.14	94.4756	6.1238
7.712	107.21	94.4747	6.1237
7.720	107.28	94.4740	6.1237
7.728	107.34	94.4734	6.1236
7.737	107.40	94.4728	6.1236
7.745	107.46	94.4723	6.1236
7.753	107.52	94.4715	6.1235
7.762	107.58	94.4707	6.1235
7.770	107.63	94.4701	6.1234
7.778	107.68	94.4694	6.1234
7.787	107.73	94.4688	6.1233
7.795	107.78	94.4681	6.1233
7.803	107.83	94.4673	6.1232
7.812	107.88	94.4668	6.1232
7.820	107.92	94.4662	6.1232
7.828	107.96	94.4657	6.1231
7.837	108.00	94.4650	6.1231
7.845	108.04	94.4643	6.1230
7.853	108.08	94.4637	6.1230
7.862	108.11	94.4632	6.1230
7.870	108.15	94.4628	6.1229
7.878	108.18	94.4623	6.1229
7.887	108.21	94.4619	6.1229
7.895	108.24	94.4612	6.1228
7.903	108.27	94.4605	6.1228
7.912	108.30	94.4599	6.1228
7.920	108.32	94.4595	6.1227
7.928	108.35	94.4593	6.1227
7.937	108.37	94.4589	6.1227
7.945	108.40	94.4584	6.1227
7.953	108.42	94.4578	6.1226
7.962	108.44	94.4574	6.1226
7.970	108.46	94.4569	6.1226
7.978	108.49	94.4566	6.1225
7.987	108.51	94.4564	6.1225
7.995	108.53	94.4562	6.1225
8.003	108.55	94.4560	6.1225
8.012	108.57	94.4558	6.1225
8.020	108.59	94.4554	6.1225
8.028	108.60	94.4551	6.1225
8.037	108.62	94.4547	6.1224
8.045	108.64	94.4541	6.1224
8.053	108.66	94.4536	6.1224
8.062	108.68	94.4533	6.1223
8.070	108.69	94.4532	6.1223
8.078	108.71	94.4528	6.1223
8.087	108.73	94.4524	6.1223
8.095	108.74	94.4522	6.1223
8.103	108.76	94.4519	6.1222
8.112	108.78	94.4516	6.1222
8.120	108.79	94.4512	6.1222
8.128	108.81	94.4511	6.1222
8.137	108.82	94.4508	6.1222
8.145	108.84	94.4505	6.1221
8.153	108.85	94.4502	6.1221
8.162	108.87	94.4498	6.1221
8.170	108.88	94.4495	6.1221
8.178	108.90	94.4492	6.1221
8.187	108.91	94.4490	6.1221
8.195	108.93	94.4488	6.1220
8.203	108.94	94.4485	6.1220
8.212	108.95	94.4483	6.1220
8.220	108.96	94.4482	6.1220
8.228	108.98	94.4479	6.1220
8.237	108.99	94.4474	6.1220
8.245	109.00	94.4471	6.1219
8.253	109.01	94.4468	6.1219
8.262	109.03	94.4465	6.1219
8.270	109.04	94.4465	6.1219
8.278	109.05	94.4464	6.1219
8.287	109.06	94.4461	6.1219
8.295	109.07	94.4458	6.1218
8.303	109.08	94.4455	6.1218
8.312	109.09	94.4452	6.1218
8.320	109.10	94.4449	6.1218
8.328	109.11	94.4449	6.1218
8.337	109.12	94.4446	6.1218
8.345	109.13	94.4442	6.1217
8.353	109.14	94.4438	6.1217
8.362	109.15	94.4434	6.1217
8.370	109.16	94.4432	6.1217
8.378	109.17	94.4429	6.1217
8.387	109.18	94.4425	6.1216
8.395	109.19	94.4421	6.1216
8.403	109.20	94.4418	6.1216
8.412	109.21	94.4416	6.1216
8.420	109.22	94.4415	6.1216
8.428	109.22	94.4413	6.1216
8.437	109.23	94.4413	6.1216
8.445	109.24	94.4411	6.1215
8.453	109.25	94.4408	6.1215
8.462	109.26	94.4407	6.1215
8.470	109.26	94.4407	6.1215
8.478	109.27	94.4405	6.1215
8.487	109.28	94.4401	6.1215
8.495	109.28	94.4397	6.1215
8.503	109.29	94.4396	6.1214
8.512	109.30	94.4395	6.1214
8.520	109.30	94.4391	6.1214
8.528	109.31	94.4387	6.1214
8.537	109.31	94.4385	6.1214
8.545	109.32	94.4383	6.1214
8.553	109.32	94.4381	6.1213
8.562	109.33	94.4380	6.1213
8.570	109.34	94.4378	6.1213
8.578	109.34	94.4375	6.1213
8.587	109.34	94.4372	6.1213
8.595	109.35	94.4370	6.1213
8.603	109.35	94.4368	6.1213
8.612	109.36	94.4365	6.1212
8.620	109.36	94.4363	6.1212
8.628	109.37	94.4361	6.1212
8.637	109.37	94.4361	6.1212
8.645	109.37	94.4359	6.1212
8.653	109.38	94.4357	6.1212
8.662	109.38	94.4354	6.1212
8.670	109.39	94.4353	6.1212
8.678	109.39	94.4351	6.1212
8.687	109.39	94.4349	6.1211
8.695	109.40	94.4348	6.1211
8.703	109.40	94.4346	6.1211
8.712	109.40	94.4344	6.1211
8.720	109.41	94.4343	6.1211
8.728	109.41	94.4341	6.1211
8.737	109.41	94.4339	6.1211
8.745	109.42	94.4337	6.1211
8.753	109.42	94.4338	6.1211
8.762	109.42	94.4336	6.1211
8.770	109.42	94.4334	6.1210
8.778	109.43	94.4333	6.1210
8.787	109.43	94.4332	6.1210
8.795	109.43	94.4331	6.1210
8.803	109.43	94.4332	6.1210
8.812	109.44	94.4332	6.1210
8.820	109.44	94.4330	6.1210
8.828	109.44	94.4330	6.1210
8.837	109.44	94.4329	6.1210
8.845	109.45	94.4330	6.1210
8.853	109.45	94.4329	6.1210
8.862	109.45	94.4326	6.1210
8.870	109.45	94.4325	6.1210
8.878	109.46	94.4324	6.1210
8.887	109.46	94.4321	6.1210
8.895	109.46	94.4319	6.1209
8.903	109.46	94.4316	6.1209
8.912	109.47	94.4314	6.1209
8.920	109.47	94.4311	6.1209
8.928	109.47	94.4307	6.1209
8.937	109.47	94.4306	6.1209
8.945	109.48	94.4306	6.1209
8.953	109.48	94.4305	6.1209
8.962	109.48	94.4303	6.1208
8.970	109.48	94.4302	6.1208
8.978	109.48	94.4301	6.1208
8.987	109.49	94.4298	6.1208
8.995	109.49	94.4295	6.1208
9.003	109.49	94.4294	6.1208
9.012	109.49	94.4293	6.1208
9.020	109.49	94.4290	6.1208
9.028	109.50	94.4289	6.1208
9.037	109.50	94.4289	6.1207
9.045	109.50	94.4288	6.1207
9.053	109.50	94.4286	6.1207
9.062	109.50	94.4283	6.1207
9.070	109.50	94.4281	6.1207
9.078	109.51	94.4279	6.1207
9.087	109.51	94.4278	6.1207
9.095	109.51	94.4277	6.1207
9.103	109.51	94.4275	6.1207
9.112	109.51	94.4275	6.1207
9.120	109.51	94.4276	6.1207
9.128	109.51	94.4276	6.1207
9.137	109.52	94.4275	6.1207
9.145	109.52	94.4275	6.1207
9.153	109.52	94.4275	6.1207
9.162	109.52	94.4274	6.1207
9.170	109.52	94.4271	6.1206
9.178	109.52	94.4271	6.1206
9.187	109.52	94.4272	6.1206
9.195	109.53	94.4270	6.1206
9.203	109.53	94.4269	6.1206
9.212	109.53	94.4268	6.1206
9.220	109.53	94.4266	6.1206
9.228	109.53	94.4266	6.1206
9.237	109.53	94.4266	6.1206
9.245	109.53	94.4266	6.1206
9.253	109.54	94.4265	6.1206
9.262	109.54	94.4263	6.1206
9.270	109.54	94.4262	6.1206
9.278	109.54	94.4261	6.1206
9.287	109.54	94.4260	6.1206
9.295	109.54	94.4260	6.1206
9.303	109.55	94.4260	6.1206
9.312	109.55	94.4260	6.1206
9.320	109.55	94.4259	6.1206
9.328	109.55	94.4259	6.1206
9.337	109.55	94.4260	6.1206
9.345	109.55	94.4258	6.1205
9.353	109.56	94.4255	6.1205
9.362	109.56	94.4252	6.1205
9.370	109.56	94.4251	6.1205
9.378	109.56	94.4250	6.1205
9.387	109.56	94.4250	6.1205
9.395	109.56	94.4249	6.1205
9.403	109.56	94.4248	6.1205
9.412	109.57	94.4246	6.1205
9.420	109.57	94.4244	6.1205
9.428	109.57	94.4245	6.1205
9.437	109.57	94.4244	6.1205
9.445	109.57	94.4244	6.1205
9.453	109.57	94.4242	6.1204
9.462	109.57	94.4244	6.1205
9.470	109.57	94.4245	6.1205
9.478	109.58	94.4246	6.1205
9.487	109.58	94.4245	6.1205
9.495	109.58	94.4245	6.1205
9.503	109.58	94.4245	6.1205
9.512	109.58	94.4245	6.1205
9.520	109.58	94.4244	6.1205
9.528	109.58	94.4242	6.1204
9.537	109.58	94.4240	6.1204
9.545	109.58	94.4240	6.1204
9.553	109.58	94.4239	6.1204
9.562	109.58	94.4238	6.1204
9.570	109.59	94.4237	6.1204
9.578	109.59	94.4236	6.1204
9.587	109.59	94.4235	6.1204
9.595	109.59	94.4236	6.1204
9.603	109.59	94.4236	6.1204
9.612	109.59	94.4234	6.1204
9.620	109.59	94.4234	6.1204
9.628	109.59	94.4233	6.1204
9.637	109.59	94.4233	6.1204
9.645	109.59	94.4231	6.1204
9.653	109.59	94.4230	6.1204
9.662	109.59	94.4230	6.1204
9.670	109.59	94.4231	6.1204
9.678	109.59	94.4232	6.1204
9.687	109.59	94.4231	6.1204
9.695	109.59	94.4227	6.1203
9.703	109.59	94.4224	6.1203
9.712	109.59	94.4222	6.1203
9.720	109.60	94.4222	6.1203
9.728	109.60	94.4221	6.1203
9.737	109.60	94.4219	6.1203
9.745	109.60	94.4219	6.1203
9.753	109.60	94.4218	6.1203
9.762	109.60	94.4217	6.1203
9.770	109.60	94.4215	6.1203
9.778	109.60	94.4215	6.1203
9.787	109.60	94.4216	6.1203
9.795	109.60	94.4217	6.1203
9.803	109.60	94.4217	6.1203
9.812	109.60	94.4215	6.1203
9.820	109.60	94.4214	6.1203
9.828	109.61	94.4214	6.1203
9.837	109.61	94.4214	6.1203
9.845	109.61	94.4212	6.1203
9.853	109.61	94.4212	6.1203
9.862	109.61	94.4211	6.1202
9.870	109.61	94.4209	6.1202
9.878	109.61	94.4207	6.1202
9.887	109.61	94.4206	6.1202
9.895	109.61	94.4205	6.1202
9.903	109.62	94.4206	6.1202
9.912	109.62	94.4205	6.1202
9.920	109.62	94.4204	6.1202
9.928	109.62	94.4204	6.1202
9.937	109.62	94.4204	6.1202
9.945	109.62	94.4203	6.1202
9.953	109.62	94.4202	6.1202
9.962	109.62	94.4200	6.1202
9.970	109.63	94.4199	6.1202
9.978	109.63	94.4198	6.1202
9.987	109.63	94.4196	6.1201
9.995	109.63	94.4194	6.1201
10.003	109.63	94.4193	6.1201
10.012	109.63	94.4193	6.1201
10.020	109.63	94.4193	6.1201
10.028	109.63	94.4192	6.1201
10.037	109.64	94.4192	6.1201
10.045	109.64	94.4191	6.1201
10.053	109.64	94.4191	6.1201
10.062	109.64	94.4191	6.1201
10.070	109.64	94.4190	6.1201
10.078	109.64	94.4191	6.1201
10.087	109.64	94.4191	6.1201
10.095	109.64	94.4190	6.1201
10.103	109.65	94.4188	6.1201
10.112	109.65	94.4187	6.1201
10.120	109.65	94.4186	6.1201
10.128	109.65	94.4184	6.1201
10.137	109.65	94.4185	6.1201
10.145	109.65	94.4185	6.1201
10.153	109.65	94.4184	6.1201
10.162	109.65	94.4182	6.1201
10.170	109.65	94.4182	6.1201
10.178	109.66	94.4182	6.1201
10.187	109.66	94.4182	6.1201
10.195	109.66	94.4181	6.1201
10.203	109.66	94.4181	6.1200
10.212	109.66	94.4180	6.1200
10.220	109.66	94.4180	6.1200
10.228	109.66	94.4181	6.1200
10.237	109.66	94.4181	6.1200
10.245	109.66	94.4181	6.1200
10.253	109.66	94.4183	6.1201
10.262	109.66	94.4182	6.1201
10.270	109.66	94.4179	6.1200
10.278	109.66	94.4178	6.1200
10.287	109.67	94.4177	6.1200
10.295	109.67	94.4178	6.1200
10.303	109.67	94.4179	6.1200
10.312	109.67	94.4179	6.1200
10.320	109.67	94.4180	6.1200
10.328	109.67	94.4179	6.1200
10.337	109.67	94.4176	6.1200
10.345	109.67	94.4176	6.1200
10.353	109.67	94.4176	6.1200
10.362	109.67	94.4174	6.1200
10.370	109.67	94.4173	6.1200
10.378	109.67	94.4171	6.1200
10.387	109.68	94.4170	6.1200
10.395	109.68	94.4170	6.1200
10.403	109.68	94.4170	6.1200
10.412	109.68	94.4169	6.1200
10.420	109.68	94.4168	6.1200
10.428	109.68	94.4167	6.1200
10.437	109.68	94.4167	6.1200
10.445	109.68	94.4168	6.1200
10.453	109.69	94.4169	6.1200
10.462	109.69	94.4170	6.1200
10.470	109.69	94.4171	6.1200
10.478	109.69	94.4170	6.1200
10.487	109.69	94.4171	6.1200
10.495	109.69	94.4172	6.1200
10.503	109.69	94.4170	6.1200
10.512	109.70	94.4169	6.1200
10.520	109.70	94.4168	6.1200
10.528	109.70	94.4167	6.1200
10.537	109.70	94.4166	6.1200
10.545	109.70	94.4164	6.1199
10.553	109.70	94.4163	6.1199
10.562	109.70	94.4162	6.1199
10.570	109.70	94.4161	6.1199
10.578	109.70	94.4161	6.1199
10.587	109.71	94.4160	6.1199
10.595	109.71	94.4159	6.1199
10.603	109.71	94.4159	6.1199
10.612	109.71	94.4158	6.1199
10.620	109.71	94.4159	6.1199
10.628	109.71	94.4159	6.1199
10.637	109.71	94.4160	6.1199
10.645	109.71	94.4160	6.1199
10.653	109.71	94.4159	6.1199
10.662	109.71	94.4159	6.1199
10.670	109.72	94.4160	6.1199
10.678	109.72	94.4158	6.1199
10.687	109.72	94.4158	6.1199
10.695	109.72	94.4157	6.1199
10.703	109.72	94.4156	6.1199
10.712	109.72	94.4155	6.1199
10.720	109.72	94.4154	6.1199
10.728	109.72	94.4154	6.1199
10.737	109.72	94.4152	6.1199
10.745	109.72	94.4153	6.1199
10.753	109.73	94.4156	6.1199
10.762	109.73	94.4155	6.1199
10.770	109.73	94.4153	6.1199
10.778	109.73	94.4152	6.1199
10.787	109.73	94.4153	6.1199
10.795	109.73	94.4155	6.1199
10.803	109.73	94.4156	6.1199
10.812	109.73	94.4155	6.1199
10.820	109.73	94.4154	6.1199
10.828	109.73	94.4154	6.1199
10.837	109.74	94.4153	6.1199
10.845	109.74	94.4152	6.1199
10.853	109.74	94.4152	6.1199
10.862	109.74	94.4152	6.1199
10.870	109.74	94.4153	6.1199
10.878	109.74	94.4153	6.1199
10.887	109.74	94.4152	6.1199
10.895	109.74	94.4153	6.1199
10.903	109.74	94.4153	6.1199
10.912	109.74	94.4152	6.1199
10.920	109.75	94.4152	6.1199
10.928	109.75	94.4152	6.1199
10.937	109.75	94.4151	6.1199
10.945	109.75	94.4150	6.1198
10.953	109.75	94.4150	6.1198
10.962	109.75	94.4151	6.1199
10.970	109.75	94.4151	6.1199
10.978	109.75	94.4151	6.1199
10.987	109.75	94.4151	6.1199
10.995	109.76	94.4149	6.1198
11.003	109.76	94.4149	6.1198
11.012	109.76	94.4149	6.1198
11.020	109.76	94.4149	6.1198
11.028	109.76	94.4150	6.1198
11.037	109.76	94.4150	6.1199
11.045	109.76	94.4150	6.1199
11.053	109.76	94.4152	6.1199
11.062	109.76	94.4156	6.1199
11.070	109.76	94.4155	6.1199
11.078	109.76	94.4152	6.1199
11.087	109.76	94.4151	6.1199
11.095	109.76	94.4149	6.1198
11.103	109.76	94.4149	6.1198
11.112	109.76	94.4149	6.1198
11.120	109.76	94.4149	6.1198
11.128	109.76	94.4149	6.1198
11.137	109.76	94.4148	6.1198
11.145	109.76	94.4148	6.1198
11.153	109.76	94.4148	6.1198
11.162	109.76	94.4147	6.1198
11.170	109.76	94.4146	6.1198
11.178	109.76	94.4145	6.1198
11.187	109.77	94.4145	6.1198
11.195	109.77	94.4146	6.1198
11.203	109.77	94.4145	6.1198
11.212	109.77	94.4145	6.1198
11.220	109.77	94.4146	6.1198
11.228	109.77	94.4147	6.1198
11.237	109.77	94.4146	6.1198
11.245	109.77	94.4147	6.1198
11.253	109.77	94.4149	6.1198
11.262	109.77	94.4148	6.1198
11.270	109.77	94.4147	6.1198
11.278	109.77	94.4146	6.1198
11.287	109.77	94.4146	6.1198
11.295	109.77	94.4144	6.1198
11.303	109.78	94.4143	6.1198
11.312	109.78	94.4143	6.1198
11.320	109.78	94.4143	6.1198
11.328	109.78	94.4145	6.1198
11.337	109.78	94.4147	6.1198
11.345	109.78	94.4146	6.1198
11.353	109.78	94.4144	6.1198
11.362	109.78	94.4143	6.1198
11.370	109.78	94.4143	6.1198
11.378	109.78	94.4142	6.1198
11.387	109.78	94.4141	6.1198
11.395	109.78	94.4140	6.1198
11.403	109.79	94.4140	6.1198
11.412	109.79	94.4139	6.1198
11.420	109.79	94.4139	6.1198
11.428	109.79	94.4139	6.1198
11.437	109.79	94.4138	6.1198
11.445	109.79	94.4137	6.1198
11.453	109.79	94.4137	6.1198
11.462	109.79	94.4138	6.1198
11.470	109.79	94.4138	6.1198
11.478	109.79	94.4139	6.1198
11.487	109.79	94.4140	6.1198
11.495	109.79	94.4141	6.1198
11.503	109.79	94.4141	6.1198
11.512	109.79	94.4139	6.1198
11.520	109.79	94.4139	6.1198
11.528	109.79	94.4137	6.1198
11.537	109.79	94.4138	6.1198
11.545	109.79	94.4139	6.1198
11.553	109.80	94.4139	6.1198
11.562	109.80	94.4140	6.1198
11.570	109.80	94.4140	6.1198
11.578	109.80	94.4142	6.1198
11.587	109.80	94.4141	6.1198
11.595	109.80	94.4140	6.1198
11.603	109.80	94.4140	6.1198
11.612	109.80	94.4140	6.1198
11.620	109.80	94.4140	6.1198
11.628	109.80	94.4143	6.1198
11.637	109.80	94.4144	6.1198
11.645	109.80	94.4142	6.1198
11.653	109.81	94.4141	6.1198
11.662	109.81	94.4140	6.1198
11.670	109.81	94.4140	6.1198
11.678	109.81	94.4140	6.1198
11.687	109.81	94.4140	6.1198
11.695	109.81	94.4140	6.1198
11.703	109.81	94.4139	6.1198
11.712	109.81	94.4138	6.1198
11.720	109.81	94.4137	6.1198
11.728	109.82	94.4136	6.1198
11.737	109.82	94.4139	6.1198
11.745	109.82	94.4140	6.1198
11.753	109.82	94.4137	6.1198
11.762	109.82	94.4134	6.1197
11.770	109.82	94.4133	6.1197
11.778	109.82	94.4133	6.1197
11.787	109.83	94.4133	6.1197
11.795	109.83	94.4134	6.1197
11.803	109.83	94.4136	6.1198
11.812	109.83	94.4138	6.1198
11.820	109.83	94.4138	6.1198
11.828	109.83	94.4137	6.1198
11.837	109.83	94.4135	6.1198
11.845	109.84	94.4134	6.1197
11.853	109.84	94.4134	6.1197
11.862	109.84	94.4134	6.1197
11.870	109.84	94.4132	6.1197
11.878	109.84	94.4133	6.1197
11.887	109.84	94.4134	6.1197
11.895	109.84	94.4131	6.1197
11.903	109.84	94.4130	6.1197
11.912	109.84	94.4130	6.1197
11.920	109.84	94.4130	6.1197
11.928	109.84	94.4128	6.1197
11.937	109.84	94.4128	6.1197
11.945	109.84	94.4131	6.1197
11.953	109.84	94.4130	6.1197
11.962	109.84	94.4128	6.1197
11.970	109.84	94.4128	6.1197
11.978	109.84	94.4128	6.1197
11.987	109.84	94.4127	6.1197
11.995	109.84	94.4125	6.1197
12.003	109.85	94.4124	6.1197
12.012	109.85	94.4125	6.1197
12.020	109.85	94.4125	6.1197
12.028	109.85	94.4124	6.1197
12.037	109.85	94.4124	6.1197
12.045	109.85	94.4122	6.1197
12.053	109.85	94.4122	6.1197
12.062	109.85	94.4123	6.1197
12.070	109.85	94.4122	6.1197
12.078	109.85	94.4122	6.1197
12.087	109.85	94.4121	6.1197
12.095	109.85	94.4121	6.1197
12.103	109.85	94.4122	6.1197
12.112	109.85	94.4125	6.1197
12.120	109.85	94.4126	6.1197
12.128	109.85	94.4125	6.1197
12.137	109.85	94.4124	6.1197
12.145	109.85	94.4124	6.1197
12.153	109.85	94.4124	6.1197
12.162	109.85	94.4124	6.1197
12.170	109.85	94.4124	6.1197
12.178	109.85	94.4123	6.1197
12.187	109.85	94.4123	6.1197
12.195	109.85	94.4121	6.1197
12.203	109.85	94.4121	6.1197
12.212	109.86	94.4121	6.1197
12.220	109.86	94.4121	6.1197
12.228	109.86	94.4121	6.1197
12.237	109.86	94.4122	6.1197
12.245	109.86	94.4123	6.1197
12.253	109.86	94.4124	6.1197
12.262	109.86	94.4124	6.1197
12.270	109.86	94.4124	6.1197
12.278	109.86	94.4124	6.1197
12.287	109.86	94.4123	6.1197
12.295	109.86	94.4122	6.1197
12.303	109.86	94.4121	6.1197
12.312	109.87	94.4120	6.1197
12.320	109.87	94.4119	6.1196
12.328	109.87	94.4119	6.1196
12.337	109.87	94.4119	6.1196
12.345	109.87	94.4118	6.1196
12.353	109.87	94.4118	6.1196
12.362	109.87	94.4117	6.1196
12.370	109.87	94.4116	6.1196
12.378	109.87	94.4116	6.1196
12.387	109.87	94.4116	6.1196
12.395	109.87	94.4115	6.1196
12.403	109.87	94.4114	6.1196
12.412	109.87	94.4114	6.1196
12.420	109.87	94.4113	6.1196
12.428	109.87	94.4113	6.1196
12.437	109.87	94.4114	6.1196
12.445	109.87	94.4117	6.1196
12.453	109.87	94.4118	6.1196
12.462	109.87	94.4119	6.1196
12.470	109.87	94.4119	6.1196
12.478	109.87	94.4118	6.1196
12.487	109.87	94.4118	6.1196
12.495	109.87	94.4118	6.1196
12.503	109.87	94.4117	6.1196
12.512	109.87	94.4119	6.1196
12.520	109.87	94.4122	6.1197
12.528	109.87	94.4126	6.1197
12.537	109.87	94.4126	6.1197
12.545	109.87	94.4124	6.1197
12.553	109.87	94.4124	6.1197
12.562	109.87	94.4123	6.1197
12.570	109.87	94.4123	6.1197
12.578	109.87	94.4123	6.1197
12.587	109.87	94.4121	6.1197
12.595	109.87	94.4121	6.1197
12.603	109.87	94.4121	6.1197
12.612	109.87	94.4121	6.1197
12.620	109.87	94.4120	6.1197
12.628	109.87	94.4121	6.1197
12.637	109.88	94.4119	6.1196
12.645	109.88	94.4118	6.1196
12.653	109.88	94.4118	6.1196
12.662	109.88	94.4118	6.1196
12.670	109.88	94.4117	6.1196
12.678	109.88	94.4118	6.1196
12.687	109.88	94.4119	6.1196
12.695	109.88	94.4119	6.1196
12.703	109.88	94.4116	6.1196
12.712	109.88	94.4116	6.1196
12.720	109.88	94.4116	6.1196
12.728	109.88	94.4114	6.1196
12.737	109.88	94.4113	6.1196
12.745	109.88	94.4113	6.1196
12.753	109.88	94.4114	6.1196
12.762	109.88	94.4114	6.1196
12.770	109.88	94.4115	6.1196
12.778	109.89	94.4114	6.1196
12.787	109.89	94.4112	6.1196
12.795	109.89	94.4112	6.1196
12.803	109.89	94.4112	6.1196
12.812	109.89	94.4112	6.1196
12.820	109.89	94.4112	6.1196
12.828	109.89	94.4112	6.1196
12.837	109.89	94.4111	6.1196
12.845	109.89	94.4110	6.1196
12.853	109.89	94.4110	6.1196
12.862	109.89	94.4110	6.1196
12.870	109.90	94.4108	6.1196
12.878	109.90	94.4108	6.1196
12.887	109.90	94.4109	6.1196
12.895	109.90	94.4109	6.1196
12.903	109.90	94.4108	6.1196
12.912	109.90	94.4108	6.1196
12.920	109.90	94.4108	6.1196
12.928	109.90	94.4107	6.1196
12.937	109.90	94.4107	6.1196
12.945	109.90	94.4107	6.1196
12.953	109.91	94.4107	6.1196
12.962	109.91	94.4108	6.1196
12.970	109.91	94.4107	6.1196
12.978	109.91	94.4106	6.1196
12.987	109.91	94.4106	6.1196
12.995	109.91	94.4105	6.1196
13.003	109.91	94.4103	6.1195
13.012	109.91	94.4103	6.1195
13.020	109.91	94.4101	6.1195
13.028	109.91	94.4103	6.1195
13.037	109.91	94.4101	6.1195
13.045	109.91	94.4100	6.1195
13.053	109.91	94.4100	6.1195
13.062	109.91	94.4099	6.1195
13.070	109.92	94.4097	6.1195
13.078	109.92	94.4097	6.1195
13.087	109.92	94.4099	6.1195
13.095	109.92	94.4099	6.1195
13.103	109.92	94.4100	6.1195
13.112	109.92	94.4101	6.1195
13.120	109.92	94.4100	6.1195
13.128	109.92	94.4100	6.1195
13.137	109.92	94.4100	6.1195
13.145	109.92	94.4101	6.1195
13.153	109.92	94.4100	6.1195
13.162	109.92	94.4097	6.1195
13.170	109.92	94.4096	6.1195
13.178	109.92	94.4096	6.1195
13.187	109.92	94.4097	6.1195
13.195	109.92	94.4099	6.1195
13.203	109.92	94.4097	6.1195
13.212	109.92	94.4097	6.1195
13.220	109.92	94.4097	6.1195
13.228	109.92	94.4096	6.1195
13.237	109.92	94.4096	6.1195
13.245	109.92	94.4098	6.1195
13.253	109.92	94.4097	6.1195
13.262	109.92	94.4099	6.1195
13.270	109.92	94.4099	6.1195
13.278	109.92	94.4099	6.1195
13.287	109.92	94.4099	6.1195
13.295	109.92	94.4099	6.1195
13.303	109.92	94.4098	6.1195
13.312	109.92	94.4100	6.1195
13.320	109.92	94.4101	6.1195
13.328	109.92	94.4102	6.1195
13.337	109.92	94.4101	6.1195
13.345	109.92	94.4101	6.1195
13.353	109.92	94.4100	6.1195
13.362	109.92	94.4100	6.1195
13.370	109.92	94.4100	6.1195
13.378	109.92	94.4101	6.1195
13.387	109.92	94.4100	6.1195
13.395	109.92	94.4100	6.1195
13.403	109.92	94.4101	6.1195
13.412	109.92	94.4101	6.1195
13.420	109.92	94.4100	6.1195
13.428	109.92	94.4100	6.1195
13.437	109.92	94.4101	6.1195
13.445	109.92	94.4101	6.1195
13.453	109.92	94.4101	6.1195
13.462	109.92	94.4101	6.1195
13.470	109.92	94.4102	6.1195
13.478	109.92	94.4100	6.1195
13.487	109.92	94.4100	6.1195
13.495	109.92	94.4098	6.1195
13.503	109.92	94.4098	6.1195
13.512	109.92	94.4097	6.1195
13.520	109.92	94.4098	6.1195
13.528	109.92	94.4098	6.1195
13.537	109.92	94.4100	6.1195
13.545	109.92	94.4101	6.1195
13.553	109.92	94.4099	6.1195
13.562	109.92	94.4098	6.1195
13.570	109.93	94.4096	6.1195
13.578	109.93	94.4095	6.1195
13.587	109.93	94.4094	6.1195
13.595	109.93	94.4095	6.1195
13.603	109.93	94.4095	6.1195
13.612	109.93	94.4095	6.1195
13.620	109.93	94.4096	6.1195
13.628	109.93	94.4097	6.1195
13.637	109.93	94.4098	6.1195
13.645	109.93	94.4098	6.1195
13.653	109.93	94.4098	6.1195
13.662	109.93	94.4097	6.1195
13.670	109.93	94.4096	6.1195
13.678	109.93	94.4095	6.1195
13.687	109.93	94.4097	6.1195
13.695	109.93	94.4097	6.1195
13.703	109.93	94.4097	6.1195
13.712	109.93	94.4096	6.1195
13.720	109.93	94.4096	6.1195
13.728	109.93	94.4095	6.1195
13.737	109.93	94.4095	6.1195
13.745	109.93	94.4095	6.1195
13.753	109.93	94.4094	6.1195
13.762	109.93	94.4095	6.1195
13.770	109.93	94.4095	6.1195
13.778	109.93	94.4095	6.1195
13.787	109.93	94.4097	6.1195
13.795	109.93	94.4099	6.1195
13.803	109.93	94.4100	6.1195
13.812	109.93	94.4100	6.1195
13.820	109.93	94.4099	6.1195
13.828	109.93	94.4099	6.1195
13.837	109.93	94.4100	6.1195
13.845	109.93	94.4100	6.1195
13.853	109.93	94.4099	6.1195
13.862	109.93	94.4099	6.1195
13.870	109.93	94.4098	6.1195
13.878	109.93	94.4098	6.1195
13.887	109.93	94.4098	6.1195
13.895	109.93	94.4100	6.1195
13.903	109.93	94.4099	6.1195
13.912	109.93	94.4098	6.1195
13.920	109.93	94.4098	6.1195
13.928	109.93	94.4097	6.1195
13.937	109.93	94.4098	6.1195
13.945	109.93	94.4098	6.1195
13.953	109.93	94.4101	6.1195
13.962	109.93	94.4100	6.1195
13.970	109.93	94.4099	6.1195
13.978	109.93	94.4099	6.1195
13.987	109.93	94.4099	6.1195
13.995	109.93	94.4099	6.1195
14.003	109.93	94.4098	6.1195
14.012	109.93	94.4097	6.1195
14.020	109.93	94.4099	6.1195
14.028	109.93	94.4100	6.1195
14.037	109.93	94.4101	6.1195
14.045	109.93	94.4101	6.1195
14.053	109.93	94.4101	6.1195
14.062	109.94	94.4101	6.1195
14.070	109.94	94.4100	6.1195
14.078	109.94	94.4101	6.1195
14.087	109.94	94.4100	6.1195
14.095	109.94	94.4098	6.1195
14.103	109.94	94.4098	6.1195
14.112	109.94	94.4101	6.1195
14.120	109.94	94.4102	6.1195
14.128	109.94	94.4101	6.1195
14.137	109.94	94.4099	6.1195
14.145	109.94	94.4098	6.1195
14.153	109.94	94.4098	6.1195
14.162	109.94	94.4098	6.1195
14.170	109.94	94.4097	6.1195
14.178	109.94	94.4096	6.1195
14.187	109.94	94.4098	6.1195
14.195	109.95	94.4098	6.1195
14.203	109.95	94.4096	6.1195
14.212	109.95	94.4096	6.1195
14.220	109.95	94.4095	6.1195
14.228	109.95	94.4095	6.1195
14.237	109.95	94.4095	6.1195
14.245	109.95	94.4095	6.1195
14.253	109.95	94.4095	6.1195
14.262	109.95	94.4095	6.1195
14.270	109.95	94.4095	6.1195
14.278	109.95	94.4093	6.1195
14.287	109.95	94.4094	6.1195
14.295	109.95	94.4095	6.1195
14.303	109.95	94.4095	6.1195
14.312	109.95	94.4094	6.1195
14.320	109.95	94.4093	6.1195
14.328	109.95	94.4093	6.1195
14.337	109.95	94.4092	6.1195
14.345	109.95	94.4092	6.1195
14.353	109.95	94.4092	6.1195
14.362	109.95	94.4092	6.1195
14.370	109.95	94.4092	6.1195
14.378	109.95	94.4090	6.1195
14.387	109.95	94.4092	6.1195
14.395	109.95	94.4093	6.1195
14.403	109.95	94.4094	6.1195
14.412	109.95	94.4095	6.1195
14.420	109.95	94.4094	6.1195
14.428	109.95	94.4091	6.1195
14.437	109.95	94.4091	6.1195
14.445	109.95	94.4093	6.1195
14.453	109.95	94.4092	6.1195
14.462	109.95	94.4094	6.1195
14.470	109.95	94.4096	6.1195
14.478	109.95	94.4097	6.1195
14.487	109.95	94.4095	6.1195
14.495	109.95	94.4095	6.1195
14.503	109.95	94.4095	6.1195
14.512	109.95	94.4095	6.1195
14.520	109.95	94.4095	6.1195
14.528	109.95	94.4095	6.1195
14.537	109.95	94.4094	6.1195
14.545	109.95	94.4092	6.1195
14.553	109.95	94.4092	6.1195
14.562	109.95	94.4094	6.1195
14.570	109.95	94.4096	6.1195
14.578	109.95	94.4096	6.1195
14.587	109.96	94.4094	6.1195
14.595	109.96	94.4093	6.1195
14.603	109.96	94.4092	6.1195
14.612	109.96	94.4092	6.1195
14.620	109.96	94.4092	6.1195
14.628	109.96	94.4092	6.1195
14.637	109.96	94.4092	6.1195
14.645	109.96	94.4092	6.1195
14.653	109.96	94.4092	6.1195
14.662	109.96	94.4092	6.1195
14.670	109.96	94.4092	6.1195
14.678	109.96	94.4092	6.1195
14.687	109.96	94.4091	6.1195
14.695	109.96	94.4090	6.1195
14.703	109.96	94.4089	6.1195
14.712	109.96	94.4089	6.1195
14.720	109.96	94.4089	6.1195
14.728	109.96	94.4089	6.1195
14.737	109.96	94.4089	6.1195
14.745	109.96	94.4089	6.1195
14.753	109.96	94.4088	6.1194
14.762	109.96	94.4087	6.1194
14.770	109.96	94.4085	6.1194
14.778	109.96	94.4086	6.1194
14.787	109.96	94.4087	6.1194
14.795	109.96	94.4089	6.1195
14.803	109.96	94.4088	6.1194
14.812	109.96	94.4087	6.1194
14.820	109.96	94.4086	6.1194
14.828	109.96	94.4085	6.1194
14.837	109.96	94.4084	6.1194
14.845	109.96	94.4084	6.1194
14.853	109.96	94.4086	6.1194
14.862	109.96	94.4086	6.1194
14.870	109.96	94.4085	6.1194
14.878	109.96	94.4084	6.1194
14.887	109.96	94.4085	6.1194
14.895	109.96	94.4086	6.1194
14.903	109.96	94.4084	6.1194
14.912	109.96	94.4083	6.1194
14.920	109.96	94.4083	6.1194
14.928	109.96	94.4084	6.1194
14.937	109.96	94.4085	6.1194
14.945	109.96	94.4086	6.1194
14.953	109.96	94.4084	6.1194
14.962	109.96	94.4084	6.1194
14.970	109.96	94.4084	6.1194
14.978	109.96	94.4083	6.1194
14.987	109.96	94.4081	6.1194
14.995	109.96	94.4080	6.1194
15.003	109.96	94.4079	6.1194
15.012	109.96	94.4079	6.1194
15.020	109.96	94.4079	6.1194
15.028	109.96	94.4079	6.1194
15.037	109.96	94.4079	6.1194
15.045	109.96	94.4079	6.1194
15.053	109.96	94.4078	6.1194
15.062	109.96	94.4079	6.1194
15.070	109.96	94.4080	6.1194
15.078	109.96	94.4081	6.1194
15.087	109.96	94.4079	6.1194
15.095	109.96	94.4079	6.1194
15.103	109.96	94.4079	6.1194
15.112	109.96	94.4079	6.1194
15.120	109.96	94.4080	6.1194
15.128	109.96	94.4081	6.1194
15.137	109.96	94.4081	6.1194
15.145	109.96	94.4081	6.1194
15.153	109.96	94.4083	6.1194
15.162	109.96	94.4084	6.1194
15.170	109.96	94.4083	6.1194
15.178	109.96	94.4083	6.1194
15.187	109.96	94.4083	6.1194
15.195	109.96	94.4084	6.1194
15.203	109.96	94.4085	6.1194
15.212	109.96	94.4085	6.1194
15.220	109.96	94.4085	6.1194
15.228	109.96	94.4084	6.1194
15.237	109.96	94.4083	6.1194
15.245	109.96	94.4084	6.1194
15.253	109.96	94.4085	6.1194
15.262	109.96	94.4084	6.1194
15.270	109.96	94.4083	6.1194
15.278	109.97	94.4083	6.1194
15.287	109.97	94.4083	6.1194
15.295	109.97	94.4084	6.1194
15.303	109.97	94.4083	6.1194
15.312	109.97	94.4083	6.1194
15.320	109.97	94.4083	6.1194
15.328	109.97	94.4082	6.1194
15.337	109.97	94.4082	6.1194
15.345	109.97	94.4081	6.1194
15.353	109.97	94.4081	6.1194
15.362	109.97	94.4080	6.1194
15.370	109.97	94.4081	6.1194
15.378	109.97	94.4083	6.1194
15.387	109.97	94.4082	6.1194
15.395	109.97	94.4083	6.1194
15.403	109.97	94.4084	6.1194
15.412	109.97	94.4083	6.1194
15.420	109.97	94.4082	6.1194
15.428	109.97	94.4082	6.1194
15.437	109.97	94.4083	6.1194
15.445	109.97	94.4084	6.1194
15.453	109.97	94.4085	6.1194
15.462	109.97	94.4083	6.1194
15.470	109.97	94.4083	6.1194
15.478	109.97	94.4081	6.1194
15.487	109.97	94.4082	6.1194
15.495	109.97	94.4082	6.1194
15.503	109.97	94.4082	6.1194
15.512	109.97	94.4081	6.1194
15.520	109.97	94.4081	6.1194
15.528	109.97	94.4081	6.1194
15.537	109.97	94.4082	6.1194
15.545	109.97	94.4082	6.1194
15.553	109.97	94.4081	6.1194
15.562	109.97	94.4080	6.1194
15.570	109.96	94.4080	6.1194
15.578	109.96	94.4081	6.1194
15.587	109.96	94.4080	6.1194
15.595	109.96	94.4080	6.1194
15.603	109.96	94.4081	6.1194
15.612	109.96	94.4081	6.1194
15.620	109.96	94.4079	6.1194
15.628	109.96	94.4079	6.1194
15.637	109.96	94.4079	6.1194
15.645	109.96	94.4080	6.1194
15.653	109.96	94.4080	6.1194
15.662	109.96	94.4080	6.1194
15.670	109.96	94.4081	6.1194
15.678	109.97	94.4082	6.1194
15.687	109.97	94.4079	6.1194
15.695	109.97	94.4080	6.1194
15.703	109.97	94.4083	6.1194
15.712	109.97	94.4081	6.1194
15.720	109.97	94.4079	6.1194
15.728	109.97	94.4078	6.1194
15.737	109.97	94.4078	6.1194
15.745	109.97	94.4078	6.1194
15.753	109.97	94.4079	6.1194
15.762	109.97	94.4078	6.1194
15.770	109.97	94.4078	6.1194
15.778	109.97	94.4077	6.1194
15.787	109.97	94.4078	6.1194
15.795	109.97	94.4077	6.1194
15.803	109.97	94.4078	6.1194
15.812	109.97	94.4081	6.1194
15.820	109.97	94.4082	6.1194
15.828	109.97	94.4081	6.1194
15.837	109.97	94.4081	6.1194
15.845	109.97	94.4079	6.1194
15.853	109.97	94.4077	6.1194
15.862	109.97	94.4077	6.1194
15.870	109.97	94.4077	6.1194
15.878	109.97	94.4077	6.1194
15.887	109.97	94.4076	6.1194
15.895	109.97	94.4076	6.1194
15.903	109.97	94.4076	6.1194
15.912	109.97	94.4077	6.1194
15.920	109.97	94.4077	6.1194
15.928	109.97	94.4076	6.1194
15.937	109.98	94.4076	6.1194
15.945	109.98	94.4075	6.1194
15.953	109.98	94.4075	6.1194
15.962	109.98	94.4075	6.1194
15.970	109.98	94.4075	6.1194
15.978	109.98	94.4075	6.1194
15.987	109.98	94.4074	6.1194
15.995	109.98	94.4073	6.1193
16.003	109.98	94.4074	6.1194
16.012	109.98	94.4075	6.1194
16.020	109.98	94.4074	6.1194
16.028	109.98	94.4074	6.1194
16.037	109.98	94.4073	6.1194
16.045	109.98	94.4072	6.1193
16.053	109.98	94.4072	6.1193
16.062	109.98	94.4072	6.1193
16.070	109.98	94.4071	6.1193
16.078	109.98	94.4072	6.1193
16.087	109.98	94.4073	6.1193
16.095	109.98	94.4073	6.1194
16.103	109.98	94.4073	6.1194
16.112	109.98	94.4073	6.1193
16.120	109.98	94.4074	6.1194
16.128	109.98	94.4074	6.1194
16.137	109.98	94.4075	6.1194
16.145	109.98	94.4077	6.1194
16.153	109.98	94.4077	6.1194
16.162	109.98	94.4077	6.1194
16.170	109.98	94.4077	6.1194
16.178	109.98	94.4078	6.1194
16.187	109.98	94.4077	6.1194
16.195	109.98	94.4078	6.1194
16.203	109.98	94.4078	6.1194
16.212	109.98	94.4077	6.1194
16.220	109.98	94.4076	6.1194
16.228	109.98	94.4076	6.1194
16.237	109.98	94.4076	6.1194
16.245	109.98	94.4076	6.1194
16.253	109.98	94.4075	6.1194
16.262	109.98	94.4075	6.1194
16.270	109.98	94.4075	6.1194
16.278	109.98	94.4074	6.1194
16.287	109.98	94.4074	6.1194
16.295	109.98	94.4074	6.1194
16.303	109.98	94.4075	6.1194
16.312	109.98	94.4076	6.1194
16.320	109.98	94.4077	6.1194
16.328	109.98	94.4077	6.1194
16.337	109.98	94.4077	6.1194
16.345	109.98	94.4077	6.1194
16.353	109.98	94.4077	6.1194
16.362	109.98	94.4077	6.1194
16.370	109.98	94.4078	6.1194
16.378	109.98	94.4077	6.1194
16.387	109.98	94.4075	6.1194
16.395	109.98	94.4074	6.1194
16.403	109.98	94.4073	6.1193
16.412	109.98	94.4073	6.1194
16.420	109.98	94.4073	6.1194
16.428	109.98	94.4073	6.1193
16.437	109.98	94.4071	6.1193
16.445	109.98	94.4071	6.1193
16.453	109.98	94.4071	6.1193
16.462	109.98	94.4072	6.1193
16.470	109.98	94.4073	6.1194
16.478	109.98	94.4073	6.1194
16.487	109.98	94.4072	6.1193
16.495	109.98	94.4072	6.1193
16.503	109.98	94.4072	6.1193
16.512	109.98	94.4071	6.1193
16.520	109.98	94.4071	6.1193
16.528	109.98	94.4072	6.1193
16.537	109.98	94.4072	6.1193
16.545	109.98	94.4072	6.1193
16.553	109.98	94.4073	6.1193
16.562	109.98	94.4072	6.1193
16.570	109.98	94.4072	6.1193
16.578	109.98	94.4071	6.1193
16.587	109.98	94.4072	6.1193
16.595	109.98	94.4072	6.1193
16.603	109.98	94.4071	6.1193
16.612	109.98	94.4071	6.1193
16.620	109.98	94.4072	6.1193
16.628	109.98	94.4073	6.1194
16.637	109.98	94.4074	6.1194
16.645	109.98	94.4074	6.1194
16.653	109.98	94.4074	6.1194
16.662	109.98	94.4075	6.1194
16.670	109.98	94.4076	6.1194
16.678	109.97	94.4074	6.1194
16.687	109.97	94.4073	6.1194
16.695	109.97	94.4075	6.1194
16.703	109.97	94.4074	6.1194
16.712	109.97	94.4073	6.1194
16.720	109.97	94.4073	6.1193
16.728	109.97	94.4072	6.1193
16.737	109.97	94.4071	6.1193
16.745	109.97	94.4071	6.1193
16.753	109.97	94.4072	6.1193
16.762	109.97	94.4073	6.1194
16.770	109.97	94.4072	6.1193
16.778	109.97	94.4072	6.1193
16.787	109.97	94.4073	6.1193
16.795	109.97	94.4074	6.1194
16.803	109.97	94.4076	6.1194
16.812	109.97	94.4077	6.1194
16.820	109.97	94.4077	6.1194
16.828	109.97	94.4077	6.1194
16.837	109.97	94.4078	6.1194
16.845	109.97	94.4079	6.1194
16.853	109.97	94.4079	6.1194
16.862	109.97	94.4080	6.1194
16.870	109.97	94.4079	6.1194
16.878	109.97	94.4078	6.1194
16.887	109.97	94.4080	6.1194
16.895	109.97	94.4080	6.1194
16.903	109.97	94.4079	6.1194
16.912	109.97	94.4079	6.1194
16.920	109.97	94.4080	6.1194
16.928	109.97	94.4080	6.1194
16.937	109.97	94.4080	6.1194
16.945	109.97	94.4080	6.1194
16.953	109.97	94.4081	6.1194
16.962	109.97	94.4080	6.1194
16.970	109.97	94.4080	6.1194
16.978	109.97	94.4081	6.1194
16.987	109.97	94.4080	6.1194
16.995	109.97	94.4079	6.1194
17.003	109.97	94.4081	6.1194
17.012	109.97	94.4081	6.1194
17.020	109.97	94.4080	6.1194
17.028	109.97	94.4080	6.1194
17.037	109.97	94.4079	6.1194
17.045	109.97	94.4079	6.1194
17.053	109.97	94.4079	6.1194
17.062	109.97	94.4079	6.1194
17.070	109.97	94.4079	6.1194
17.078	109.97	94.4078	6.1194
17.087	109.97	94.4078	6.1194
17.095	109.98	94.4079	6.1194
17.103	109.98	94.4080	6.1194
17.112	109.98	94.4079	6.1194
17.120	109.98	94.4080	6.1194
17.128	109.98	94.4081	6.1194
17.137	109.98	94.4079	6.1194
17.145	109.98	94.4080	6.1194
17.153	109.98	94.4079	6.1194
17.162	109.98	94.4080	6.1194
17.170	109.98	94.4081	6.1194
17.178	109.98	94.4082	6.1194
17.187	109.98	94.4082	6.1194
17.195	109.98	94.4082	6.1194
17.203	109.98	94.4082	6.1194
17.212	109.98	94.4082	6.1194
17.220	109.99	94.4082	6.1194
17.228	109.99	94.4081	6.1194
17.237	109.99	94.4081	6.1194
17.245	109.99	94.4080	6.1194
17.253	109.99	94.4080	6.1194
17.262	109.99	94.4078	6.1194
17.270	109.99	94.4077	6.1194
17.278	109.99	94.4076	6.1194
17.287	109.99	94.4076	6.1194
17.295	109.99	94.4074	6.1194
17.303	109.99	94.4074	6.1194
17.312	109.99	94.4074	6.1194
17.320	109.99	94.4072	6.1193
17.328	109.99	94.4071	6.1193
17.337	109.99	94.4072	6.1193
17.345	109.99	94.4073	6.1193
17.353	109.99	94.4071	6.1193
17.362	109.99	94.4070	6.1193
17.370	109.99	94.4069	6.1193
17.378	109.99	94.4070	6.1193
17.387	109.99	94.4071	6.1193
17.395	109.99	94.4071	6.1193
17.403	110.00	94.4070	6.1193
17.412	110.00	94.4070	6.1193
17.420	110.00	94.4071	6.1193
17.428	110.00	94.4070	6.1193
17.437	110.00	94.4071	6.1193
17.445	110.00	94.4071	6.1193
17.453	110.00	94.4073	6.1193
17.462	110.00	94.4074	6.1194
17.470	110.00	94.4074	6.1194
17.478	110.00	94.4075	6.1194
17.487	110.00	94.4074	6.1194
17.495	110.00	94.4074	6.1194
17.503	110.00	94.4076	6.1194
17.512	110.00	94.4078	6.1194
17.520	110.00	94.4077	6.1194
17.528	110.00	94.4075	6.1194
17.537	110.00	94.4075	6.1194
17.545	110.00	94.4076	6.1194
17.553	110.00	94.4074	6.1194
17.562	110.00	94.4075	6.1194
17.570	110.00	94.4076	6.1194
17.578	110.00	94.4076	6.1194
17.587	110.00	94.4076	6.1194
17.595	110.00	94.4076	6.1194
17.603	110.00	94.4077	6.1194
17.612	110.00	94.4078	6.1194
17.620	110.00	94.4077	6.1194
17.628	110.00	94.4076	6.1194
17.637	110.00	94.4076	6.1194
17.645	110.00	94.4076	6.1194
17.653	109.99	94.4076	6.1194
17.662	109.99	94.4077	6.1194
17.670	109.99	94.4077	6.1194
17.678	109.99	94.4076	6.1194
17.687	109.99	94.4076	6.1194
17.695	109.99	94.4077	6.1194
17.703	109.99	94.4079	6.1194
17.712	109.99	94.4079	6.1194
17.720	109.99	94.4080	6.1194
17.728	109.99	94.4080	6.1194
17.737	109.99	94.4081	6.1194
17.745	109.99	94.4081	6.1194
17.753	109.99	94.4079	6.1194
17.762	109.99	94.4078	6.1194
17.770	109.99	94.4078	6.1194
17.778	109.99	94.4079	6.1194
17.787	109.99	94.4078	6.1194
17.795	109.99	94.4078	6.1194
17.803	109.99	94.4079	6.1194
17.812	109.99	94.4079	6.1194
17.820	109.99	94.4078	6.1194
17.828	109.99	94.4078	6.1194
17.837	109.99	94.4078	6.1194
17.845	109.99	94.4077	6.1194
17.853	109.99	94.4076	6.1194
17.862	109.99	94.4076	6.1194
17.870	109.99	94.4079	6.1194
17.878	109.99	94.4082	6.1194
17.887	109.99	94.4083	6.1194
17.895	109.99	94.4083	6.1194
17.903	109.99	94.4083	6.1194
17.912	109.99	94.4082	6.1194
17.920	109.99	94.4082	6.1194
17.928	109.99	94.4082	6.1194
17.937	110.00	94.4083	6.1194
17.945	110.00	94.4082	6.1194
17.953	110.00	94.4082	6.1194
17.962	110.00	94.4082	6.1194
17.970	110.00	94.4083	6.1194
17.978	110.00	94.4083	6.1194
17.987	110.00	94.4083	6.1194
17.995	110.00	94.4083	6.1194
18.003	110.00	94.4083	6.1194
18.012	110.00	94.4085	6.1194
18.020	110.00	94.4085	6.1194
18.028	110.00	94.4084	6.1194
18.037	110.00	94.4084	6.1194
18.045	110.00	94.4085	6.1194
18.053	110.00	94.4086	6.1194
18.062	110.00	94.4086	6.1194
18.070	110.00	94.4084	6.1194
18.078	110.00	94.4083	6.1194
18.087	110.00	94.4082	6.1194
18.095	110.00	94.4081	6.1194
18.103	110.00	94.4081	6.1194
18.112	110.00	94.4080	6.1194
18.120	110.00	94.4080	6.1194
18.128	110.00	94.4079	6.1194
18.137	110.00	94.4079	6.1194
18.145	110.00	94.4080	6.1194
18.153	110.00	94.4080	6.1194
18.162	110.00	94.4082	6.1194
18.170	110.00	94.4081	6.1194
18.178	110.00	94.4080	6.1194
18.187	110.00	94.4080	6.1194
18.195	110.00	94.4081	6.1194
18.203	110.00	94.4082	6.1194
18.212	110.00	94.4084	6.1194
18.220	110.00	94.4084	6.1194
18.228	110.00	94.4083	6.1194
18.237	110.00	94.4082	6.1194
18.245	110.00	94.4082	6.1194
18.253	110.00	94.4082	6.1194
18.262	110.00	94.4082	6.1194
18.270	110.00	94.4081	6.1194
18.278	110.00	94.4081	6.1194
18.287	109.99	94.4081	6.1194
18.295	109.99	94.4081	6.1194
18.303	109.99	94.4080	6.1194
18.312	109.99	94.4081	6.1194
18.320	109.99	94.4081	6.1194
18.328	109.99	94.4080	6.1194
18.337	109.99	94.4078	6.1194
18.345	109.99	94.4078	6.1194
18.353	109.99	94.4077	6.1194
18.362	109.99	94.4077	6.1194
18.370	109.99	94.4077	6.1194
18.378	109.99	94.4076	6.1194
18.387	109.99	94.4076	6.1194
18.395	109.99	94.4076	6.1194
18.403	109.99	94.4076	6.1194
18.412	109.99	94.4076	6.1194
18.420	109.99	94.4075	6.1194
18.428	109.99	94.4076	6.1194
18.437	109.99	94.4076	6.1194
18.445	109.99	94.4077	6.1194
18.453	109.99	94.4077	6.1194
18.462	109.98	94.4078	6.1194
18.470	109.98	94.4078	6.1194
18.478	109.98	94.4080	6.1194
18.487	109.98	94.4079	6.1194
18.495	109.98	94.4078	6.1194
18.503	109.98	94.4079	6.1194
18.512	109.98	94.4079	6.1194
18.520	109.98	94.4079	6.1194
18.528	109.98	94.4080	6.1194
18.537	109.98	94.4080	6.1194
18.545	109.99	94.4077	6.1194
18.553	109.99	94.4077	6.1194
18.562	109.99	94.4079	6.1194
18.570	109.99	94.4078	6.1194
18.578	109.99	94.4077	6.1194
18.587	109.99	94.4078	6.1194
18.595	109.99	94.4077	6.1194
18.603	109.99	94.4076	6.1194
18.612	109.99	94.4076	6.1194
18.620	109.99	94.4078	6.1194
18.628	109.99	94.4077	6.1194
18.637	109.99	94.4077	6.1194
18.645	109.99	94.4078	6.1194
18.653	109.99	94.4080	6.1194
18.662	109.99	94.4081	6.1194
18.670	109.99	94.4081	6.1194
18.678	109.99	94.4080	6.1194
18.687	109.99	94.4080	6.1194
18.695	110.00	94.4081	6.1194
18.703	110.00	94.4081	6.1194
18.712	110.00	94.4081	6.1194
18.720	110.00	94.4082	6.1194
18.728	110.00	94.4081	6.1194
18.737	110.00	94.4079	6.1194
18.745	110.00	94.4079	6.1194
18.753	110.00	94.4077	6.1194
18.762	110.00	94.4077	6.1194
18.770	110.00	94.4078	6.1194
18.778	110.00	94.4079	6.1194
18.787	110.00	94.4077	6.1194
18.795	110.00	94.4076	6.1194
18.803	110.00	94.4076	6.1194
18.812	110.00	94.4075	6.1194
18.820	110.00	94.4074	6.1194
18.828	110.00	94.4075	6.1194
18.837	110.00	94.4075	6.1194
18.845	110.00	94.4073	6.1194
18.853	110.00	94.4074	6.1194
18.862	110.00	94.4074	6.1194
18.870	110.00	94.4075	6.1194
18.878	110.00	94.4075	6.1194
18.887	110.00	94.4075	6.1194
18.895	110.00	94.4073	6.1194
18.903	110.00	94.4072	6.1193
18.912	110.00	94.4072	6.1193
18.920	109.99	94.4072	6.1193
18.928	109.99	94.4072	6.1193
18.937	109.99	94.4072	6.1193
18.945	109.99	94.4071	6.1193
18.953	109.99	94.4073	6.1194
18.962	109.99	94.4075	6.1194
18.970	109.99	94.4077	6.1194
18.978	109.99	94.4079	6.1194
18.987	109.99	94.4080	6.1194
18.995	109.99	94.4080	6.1194
19.003	109.99	94.4079	6.1194
19.012	109.99	94.4079	6.1194
19.020	109.99	94.4080	6.1194
19.028	109.99	94.4082	6.1194
19.037	109.99	94.4081	6.1194
19.045	109.99	94.4081	6.1194
19.053	109.99	94.4080	6.1194
19.062	109.99	94.4078	6.1194
19.070	109.99	94.4077	6.1194
19.078	109.99	94.4077	6.1194
19.087	109.99	94.4079	6.1194
19.095	109.99	94.4080	6.1194
19.103	109.99	94.4081	6.1194
19.112	109.99	94.4079	6.1194
19.120	109.99	94.4076	6.1194
19.128	109.99	94.4077	6.1194
19.137	109.99	94.4079	6.1194
19.145	109.99	94.4079	6.1194
19.153	109.99	94.4079	6.1194
19.162	109.99	94.4078	6.1194
19.170	109.99	94.4077	6.1194
19.178	109.99	94.4077	6.1194
19.187	109.99	94.4080	6.1194
19.195	109.99	94.4079	6.1194
19.203	109.99	94.4078	6.1194
19.212	109.99	94.4078	6.1194
19.220	109.99	94.4078	6.1194
19.228	109.99	94.4079	6.1194
19.237	109.99	94.4079	6.1194
19.245	109.99	94.4079	6.1194
19.253	109.99	94.4079	6.1194
19.262	109.99	94.4079	6.1194
19.270	109.99	94.4079	6.1194
19.278	109.99	94.4078	6.1194
19.287	109.99	94.4078	6.1194
19.295	109.99	94.4079	6.1194
19.303	109.99	94.4080	6.1194
19.312	109.99	94.4081	6.1194
19.320	109.99	94.4083	6.1194
19.328	109.99	94.4084	6.1194
19.337	109.99	94.4085	6.1194
19.345	109.99	94.4086	6.1194
19.353	109.98	94.4086	6.1194
19.362	109.98	94.4085	6.1194
19.370	109.98	94.4085	6.1194
19.378	109.98	94.4085	6.1194
19.387	109.98	94.4085	6.1194
19.395	109.98	94.4085	6.1194
19.403	109.98	94.4085	6.1194
19.412	109.98	94.4084	6.1194
19.420	109.98	94.4083	6.1194
19.428	109.98	94.4083	6.1194
19.437	109.98	94.4084	6.1194
19.445	109.98	94.4084	6.1194
19.453	109.98	94.4086	6.1194
19.462	109.98	94.4086	6.1194
19.470	109.98	94.4087	6.1194
19.478	109.98	94.4087	6.1194
19.487	109.98	94.4088	6.1194
19.495	109.98	94.4089	6.1195
19.503	109.98	94.4089	6.1195
19.512	109.98	94.4089	6.1195
19.520	109.98	94.4090	6.1195
19.528	109.98	94.4090	6.1195
19.537	109.98	94.4090	6.1195
19.545	109.98	94.4090	6.1195
19.553	109.98	94.4089	6.1195
19.562	109.98	94.4089	6.1195
19.570	109.98	94.4088	6.1194
19.578	109.98	94.4087	6.1194
19.587	109.98	94.4086	6.1194
19.595	109.98	94.4086	6.1194
19.603	109.98	94.4086	6.1194
19.612	109.98	94.4087	6.1194
19.620	109.98	94.4089	6.1195
19.628	109.98	94.4090	6.1195
19.637	109.98	94.4090	6.1195
19.645	109.98	94.4090	6.1195
19.653	109.98	94.4089	6.1195
19.662	109.98	94.4087	6.1194
19.670	109.98	94.4087	6.1194
19.678	109.98	94.4087	6.1194
19.687	109.98	94.4088	6.1194
19.695	109.98	94.4088	6.1194
19.703	109.98	94.4087	6.1194
19.712	109.98	94.4087	6.1194
19.720	109.98	94.4086	6.1194
19.728	109.98	94.4086	6.1194
19.737	109.98	94.4085	6.1194
19.745	109.98	94.4085	6.1194
19.753	109.98	94.4087	6.1194
19.762	109.98	94.4086	6.1194
19.770	109.98	94.4086	6.1194
19.778	109.98	94.4087	6.1194
19.787	109.98	94.4086	6.1194
19.795	109.98	94.4085	6.1194
19.803	109.98	94.4086	6.1194
19.812	109.98	94.4088	6.1194
19.820	109.98	94.4088	6.1195
19.828	109.98	94.4087	6.1194
19.837	109.98	94.4084	6.1194
19.845	109.98	94.4081	6.1194
19.853	109.98	94.4080	6.1194
19.862	109.98	94.4079	6.1194
19.870	109.98	94.4079	6.1194
19.878	109.98	94.4079	6.1194
19.887	109.98	94.4083	6.1194
19.895	109.98	94.4084	6.1194
19.903	109.98	94.4085	6.1194
19.912	109.98	94.4084	6.1194
19.920	109.98	94.4084	6.1194
19.928	109.98	94.4084	6.1194
19.937	109.98	94.4083	6.1194
19.945	109.98	94.4083	6.1194
19.953	109.98	94.4083	6.1194
19.962	109.98	94.4084	6.1194
19.970	109.98	94.4083	6.1194
19.978	109.98	94.4083	6.1194
19.987	109.98	94.4083	6.1194
19.995	109.98	94.4084	6.1194
20.003	109.98	94.4087	6.1194
20.012	109.98	94.4085	6.1194
20.020	109.98	94.4084	6.1194
20.028	109.98	94.4084	6.1194
20.037	109.98	94.4085	6.1194
20.045	109.98	94.4085	6.1194
20.053	109.98	94.4086	6.1194
20.062	109.98	94.4088	6.1194
20.070	109.98	94.4089	6.1195
20.078	109.98	94.4089	6.1195
20.087	109.98	94.4089	6.1195
20.095	109.98	94.4091	6.1195
20.103	109.98	94.4091	6.1195
20.112	109.98	94.4091	6.1195
20.120	109.98	94.4090	6.1195
20.128	109.98	94.4088	6.1194
20.137	109.98	94.4089	6.1195
20.145	109.98	94.4090	6.1195
20.153	109.98	94.4089	6.1195
20.162	109.98	94.4089	6.1195
20.170	109.98	94.4091	6.1195
20.178	109.98	94.4090	6.1195
20.187	109.98	94.4090	6.1195
20.195	109.98	94.4090	6.1195
20.203	109.98	94.4090	6.1195
20.212	109.98	94.4090	6.1195
20.220	109.98	94.4090	6.1195
20.228	109.98	94.4090	6.1195
20.237	109.98	94.4091	6.1195
20.245	109.98	94.4092	6.1195
20.253	109.98	94.4092	6.1195
20.262	109.97	94.4092	6.1195
20.270	109.97	94.4092	6.1195
20.278	109.97	94.4091	6.1195
20.287	109.97	94.4092	6.1195
20.295	109.97	94.4093	6.1195
20.303	109.97	94.4092	6.1195
20.312	109.98	94.4092	6.1195
20.320	109.98	94.4092	6.1195
20.328	109.98	94.4091	6.1195
20.337	109.98	94.4092	6.1195
20.345	109.98	94.4092	6.1195
20.353	109.98	94.4092	6.1195
20.362	109.98	94.4091	6.1195
20.370	109.98	94.4091	6.1195
20.378	109.98	94.4090	6.1195
20.387	109.98	94.4088	6.1194
20.395	109.98	94.4088	6.1194
20.403	109.98	94.4088	6.1194
20.412	109.98	94.4088	6.1194
20.420	109.98	94.4089	6.1195
20.428	109.98	94.4089	6.1195
20.437	109.99	94.4089	6.1195
20.445	109.99	94.4089	6.1195
20.453	109.99	94.4090	6.1195
20.462	109.99	94.4090	6.1195
20.470	109.99	94.4090	6.1195
20.478	109.99	94.4089	6.1195
20.487	109.99	94.4089	6.1195
20.495	109.99	94.4089	6.1195
20.503	109.99	94.4090	6.1195
20.512	109.99	94.4088	6.1194
20.520	109.99	94.4086	6.1194
20.528	109.99	94.4086	6.1194
20.537	109.99	94.4087	6.1194
20.545	110.00	94.4087	6.1194
20.553	110.00	94.4084	6.1194
20.562	110.00	94.4085	6.1194
20.570	110.00	94.4086	6.1194
20.578	110.00	94.4086	6.1194
20.587	110.00	94.4084	6.1194
20.595	110.00	94.4083	6.1194
20.603	110.00	94.4084	6.1194
20.612	110.00	94.4084	6.1194
20.620	110.00	94.4084	6.1194
20.628	110.00	94.4083	6.1194
20.637	110.00	94.4084	6.1194
20.645	110.00	94.4083	6.1194
20.653	110.00	94.4082	6.1194
20.662	110.00	94.4082	6.1194
20.670	110.00	94.4084	6.1194
20.678	110.00	94.4084	6.1194
20.687	110.00	94.4084	6.1194
20.695	110.00	94.4084	6.1194
20.703	110.00	94.4085	6.1194
20.712	110.00	94.4085	6.1194
20.720	110.00	94.4085	6.1194
20.728	110.00	94.4085	6.1194
20.737	110.00	94.4085	6.1194
20.745	110.00	94.4085	6.1194
20.753	110.00	94.4085	6.1194
20.762	110.00	94.4085	6.1194
20.770	110.00	94.4086	6.1194
20.778	110.00	94.4087	6.1194
20.787	110.00	94.4087	6.1194
20.795	110.00	94.4086	6.1194
20.803	110.00	94.4085	6.1194
20.812	110.00	94.4085	6.1194
20.820	110.00	94.4084	6.1194
20.828	110.00	94.4084	6.1194
20.837	110.00	94.4085	6.1194
20.845	110.00	94.4086	6.1194
20.853	110.00	94.4085	6.1194
20.862	110.00	94.4084	6.1194
20.870	110.00	94.4084	6.1194
20.878	109.99	94.4084	6.1194
20.887	109.99	94.4084	6.1194
20.895	109.99	94.4084	6.1194
20.903	109.99	94.4084	6.1194
20.912	109.99	94.4084	6.1194
20.920	109.99	94.4085	6.1194
20.928	109.99	94.4086	6.1194
20.937	109.99	94.4087	6.1194
20.945	109.99	94.4086	6.1194
20.953	109.99	94.4085	6.1194
20.962	109.99	94.4084	6.1194
20.970	109.99	94.4083	6.1194
20.978	109.99	94.4083	6.1194
20.987	109.99	94.4084	6.1194
20.995	109.99	94.4084	6.1194
21.003	109.99	94.4085	6.1194
21.012	109.99	94.4087	6.1194
21.020	109.99	94.4087	6.1194
21.028	109.99	94.4086	6.1194
21.037	109.99	94.4085	6.1194
21.045	109.99	94.4085	6.1194
21.053	109.99	94.4086	6.1194
21.062	109.99	94.4087	6.1194
21.070	109.99	94.4088	6.1195
21.078	109.99	94.4088	6.1194
21.087	109.99	94.4088	6.1194
21.095	109.99	94.4087	6.1194
21.103	109.98	94.4086	6.1194
21.112	109.98	94.4087	6.1194
21.120	109.98	94.4088	6.1194
21.128	109.98	94.4089	6.1195
21.137	109.98	94.4089	6.1195
21.145	109.98	94.4089	6.1195
21.153	109.98	94.4089	6.1195
21.162	109.98	94.4088	6.1194
21.170	109.98	94.4087	6.1194
21.178	109.98	94.4087	6.1194
21.187	109.98	94.4087	6.1194
21.195	109.98	94.4087	6.1194
21.203	109.98	94.4087	6.1194
21.212	109.99	94.4087	6.1194
21.220	109.99	94.4087	6.1194
21.228	109.99	94.4088	6.1195
21.237	109.99	94.4089	6.1195
21.245	109.99	94.4089	6.1195
21.253	109.99	94.4091	6.1195
21.262	109.99	94.4091	6.1195
21.270	109.99	94.4093	6.1195
21.278	109.99	94.4092	6.1195
21.287	109.99	94.4091	6.1195
21.295	109.99	94.4091	6.1195
21.303	109.99	94.4092	6.1195
21.312	109.99	94.4092	6.1195
21.320	109.99	94.4092	6.1195
21.328	110.00	94.4092	6.1195
21.337	110.00	94.4091	6.1195
21.345	110.00	94.4092	6.1195
21.353	110.00	94.4092	6.1195
21.362	110.00	94.4091	6.1195
21.370	110.00	94.4093	6.1195
21.378	110.00	94.4095	6.1195
21.387	110.00	94.4094	6.1195
21.395	110.00	94.4092	6.1195
21.403	110.00	94.4092	6.1195
21.412	110.00	94.4093	6.1195
21.420	110.00	94.4093	6.1195
21.428	110.00	94.4092	6.1195
21.437	110.00	94.4091	6.1195
21.445	110.00	94.4090	6.1195
21.453	110.00	94.4089	6.1195
21.462	110.00	94.4089	6.1195
21.470	110.01	94.4087	6.1194
21.478	110.01	94.4085	6.1194
21.487	110.01	94.4085	6.1194
21.495	110.01	94.4087	6.1194
21.503	110.01	94.4087	6.1194
21.512	110.01	94.4088	6.1194
21.520	110.01	94.4088	6.1194
21.528	110.01	94.4087	6.1194
21.537	110.00	94.4085	6.1194
21.545	110.00	94.4084	6.1194
21.553	110.00	94.4084	6.1194
21.562	110.00	94.4084	6.1194
21.570	110.00	94.4084	6.1194
21.578	110.00	94.4084	6.1194
21.587	110.00	94.4084	6.1194
21.595	110.00	94.4083	6.1194
21.603	110.00	94.4083	6.1194
21.612	110.00	94.4085	6.1194
21.620	110.00	94.4085	6.1194
21.628	110.00	94.4086	6.1194
21.637	110.00	94.4086	6.1194
21.645	110.00	94.4085	6.1194
21.653	110.00	94.4085	6.1194
21.662	110.00	94.4085	6.1194
21.670	110.00	94.4086	6.1194
21.678	110.00	94.4087	6.1194
21.687	110.00	94.4087	6.1194
21.695	110.00	94.4087	6.1194
21.703	110.00	94.4086	6.1194
21.712	110.00	94.4086	6.1194
21.720	110.00	94.4086	6.1194
21.728	110.00	94.4087	6.1194
21.737	110.00	94.4087	6.1194
21.745	110.00	94.4087	6.1194
21.753	110.00	94.4087	6.1194
21.762	110.00	94.4087	6.1194
21.770	110.00	94.4088	6.1194
21.778	110.00	94.4088	6.1194
21.787	110.00	94.4087	6.1194
21.795	110.00	94.4086	6.1194
21.803	110.00	94.4085	6.1194
21.812	110.00	94.4085	6.1194
21.820	110.00	94.4086	6.1194
21.828	110.00	94.4086	6.1194
21.837	110.00	94.4086	6.1194
21.845	110.00	94.4086	6.1194
21.853	110.00	94.4086	6.1194
21.862	110.00	94.4086	6.1194
21.870	110.00	94.4085	6.1194
21.878	110.00	94.4086	6.1194
21.887	110.00	94.4086	6.1194
21.895	110.00	94.4086	6.1194
21.903	109.99	94.4085	6.1194
21.912	109.99	94.4085	6.1194
21.920	109.99	94.4084	6.1194
21.928	109.99	94.4084	6.1194
21.937	109.99	94.4084	6.1194
21.945	109.99	94.4084	6.1194
21.953	109.99	94.4084	6.1194
21.962	109.99	94.4085	6.1194
21.970	109.99	94.4085	6.1194
21.978	109.99	94.4085	6.1194
21.987	109.99	94.4086	6.1194
21.995	109.99	94.4085	6.1194
22.003	109.99	94.4085	6.1194
22.012	109.99	94.4085	6.1194
22.020	109.98	94.4084	6.1194
22.028	109.98	94.4083	6.1194
22.037	109.98	94.4084	6.1194
22.045	109.98	94.4084	6.1194
22.053	109.98	94.4084	6.1194
22.062	109.98	94.4083	6.1194
22.070	109.98	94.4083	6.1194
22.078	109.98	94.4081	6.1194
22.087	109.98	94.4081	6.1194
22.095	109.98	94.4080	6.1194
22.103	109.98	94.4080	6.1194
22.112	109.98	94.4079	6.1194
22.120	109.98	94.4079	6.1194
22.128	109.98	94.4079	6.1194
22.137	109.98	94.4079	6.1194
22.145	109.98	94.4078	6.1194
22.153	109.98	94.4077	6.1194
22.162	109.98	94.4077	6.1194
22.170	109.98	94.4078	6.1194
22.178	109.98	94.4077	6.1194
22.187	109.98	94.4076	6.1194
22.195	109.98	94.4075	6.1194
22.203	109.98	94.4076	6.1194
22.212	109.98	94.4075	6.1194
22.220	109.98	94.4075	6.1194
22.228	109.98	94.4075	6.1194
22.237	109.98	94.4076	6.1194
22.245	109.98	94.4077	6.1194
22.253	109.98	94.4076	6.1194
22.262	109.99	94.4075	6.1194
22.270	109.99	94.4074	6.1194
22.278	109.99	94.4074	6.1194
22.287	109.99	94.4074	6.1194
22.295	109.99	94.4076	6.1194
22.303	109.99	94.4075	6.1194
22.312	109.99	94.4075	6.1194
22.320	109.99	94.4075	6.1194
22.328	109.99	94.4075	6.1194
22.337	109.99	94.4075	6.1194
22.345	109.99	94.4076	6.1194
22.353	109.99	94.4076	6.1194
22.362	109.99	94.4077	6.1194
22.370	109.99	94.4079	6.1194
22.378	109.99	94.4076	6.1194
22.387	109.99	94.4075	6.1194
22.395	109.99	94.4075	6.1194
22.403	110.00	94.4075	6.1194
22.412	110.00	94.4075	6.1194
22.420	110.00	94.4075	6.1194
22.428	110.00	94.4075	6.1194
22.437	110.00	94.4075	6.1194
22.445	110.00	94.4074	6.1194
22.453	110.00	94.4074	6.1194
22.462	110.00	94.4073	6.1194
22.470	110.00	94.4073	6.1193
22.478	110.00	94.4073	6.1193
22.487	110.00	94.4073	6.1194
22.495	110.00	94.4073	6.1193
22.503	110.00	94.4073	6.1194
22.512	110.00	94.4074	6.1194
22.520	110.00	94.4076	6.1194
22.528	110.00	94.4078	6.1194
22.537	110.00	94.4078	6.1194
22.545	110.00	94.4078	6.1194
22.553	110.00	94.4079	6.1194
22.562	110.00	94.4079	6.1194
22.570	110.00	94.4079	6.1194
22.578	110.00	94.4079	6.1194
22.587	110.00	94.4079	6.1194
22.595	110.01	94.4079	6.1194
22.603	110.01	94.4078	6.1194
22.612	110.01	94.4077	6.1194
22.620	110.01	94.4076	6.1194
22.628	110.01	94.4077	6.1194
22.637	110.01	94.4077	6.1194
22.645	110.01	94.4077	6.1194
22.653	110.01	94.4078	6.1194
22.662	110.01	94.4077	6.1194
22.670	110.01	94.4077	6.1194
22.678	110.01	94.4078	6.1194
22.687	110.01	94.4077	6.1194
22.695	110.01	94.4077	6.1194
22.703	110.01	94.4077	6.1194
22.712	110.01	94.4078	6.1194
22.720	110.01	94.4078	6.1194
22.728	110.01	94.4078	6.1194
22.737	110.01	94.4078	6.1194
22.745	110.01	94.4077	6.1194
22.753	110.01	94.4077	6.1194
22.762	110.01	94.4076	6.1194
22.770	110.01	94.4076	6.1194
22.778	110.01	94.4075	6.1194
22.787	110.01	94.4076	6.1194
22.795	110.01	94.4076	6.1194
22.803	110.01	94.4077	6.1194
22.812	110.01	94.4078	6.1194
22.820	110.01	94.4078	6.1194
22.828	110.01	94.4077	6.1194
22.837	110.01	94.4077	6.1194
22.845	110.01	94.4077	6.1194
22.853	110.01	94.4077	6.1194
22.862	110.01	94.4077	6.1194
22.870	110.01	94.4079	6.1194
22.878	110.01	94.4078	6.1194
22.887	110.01	94.4078	6.1194
22.895	110.01	94.4077	6.1194
22.903	110.01	94.4077	6.1194
22.912	110.01	94.4078	6.1194
22.920	110.01	94.4081	6.1194
22.928	110.01	94.4080	6.1194
22.937	110.01	94.4081	6.1194
22.945	110.01	94.4081	6.1194
22.953	110.01	94.4082	6.1194
22.962	110.01	94.4082	6.1194
22.970	110.01	94.4081	6.1194
22.978	110.01	94.4082	6.1194
22.987	110.01	94.4082	6.1194
22.995	110.01	94.4082	6.1194
23.003	110.01	94.4083	6.1194
23.012	110.01	94.4081	6.1194
23.020	110.01	94.4081	6.1194
23.028	110.01	94.4081	6.1194
23.037	110.01	94.4081	6.1194
23.045	110.01	94.4082	6.1194
23.053	110.01	94.4084	6.1194
23.062	110.01	94.4084	6.1194
23.070	110.01	94.4082	6.1194
23.078	110.01	94.4084	6.1194
23.087	110.01	94.4083	6.1194
23.095	110.01	94.4082	6.1194
23.103	110.01	94.4082	6.1194
23.112	110.00	94.4082	6.1194
23.120	110.00	94.4081	6.1194
23.128	110.00	94.4080	6.1194
23.137	110.00	94.4079	6.1194
23.145	110.00	94.4081	6.1194
23.153	110.00	94.4082	6.1194
23.162	110.00	94.4083	6.1194
23.170	110.00	94.4083	6.1194
23.178	110.00	94.4083	6.1194
23.187	110.00	94.4083	6.1194
23.195	110.00	94.4083	6.1194
23.203	110.00	94.4082	6.1194
23.212	110.00	94.4083	6.1194
23.220	110.00	94.4083	6.1194
23.228	110.00	94.4083	6.1194
23.237	110.00	94.4083	6.1194
23.245	110.00	94.4084	6.1194
23.253	109.99	94.4085	6.1194
23.262	109.99	94.4086	6.1194
23.270	109.99	94.4088	6.1194
23.278	109.99	94.4089	6.1195
23.287	109.99	94.4088	6.1195
23.295	109.99	94.4088	6.1194
23.303	109.99	94.4086	6.1194
23.312	109.99	94.4086	6.1194
23.320	109.99	94.4086	6.1194
23.328	109.99	94.4086	6.1194
23.337	109.99	94.4086	6.1194
23.345	109.99	94.4087	6.1194
23.353	109.99	94.4086	6.1194
23.362	109.99	94.4087	6.1194
23.370	109.99	94.4087	6.1194
23.378	109.99	94.4089	6.1195
23.387	109.99	94.4089	6.1195
23.395	109.99	94.4089	6.1195
23.403	109.99	94.4088	6.1194
23.412	109.99	94.4087	6.1194
23.420	109.99	94.4086	6.1194
23.428	109.99	94.4085	6.1194
23.437	109.99	94.4084	6.1194
23.445	109.99	94.4085	6.1194
23.453	109.99	94.4085	6.1194
23.462	109.99	94.4085	6.1194
23.470	109.99	94.4085	6.1194
23.478	109.99	94.4085	6.1194
23.487	109.99	94.4085	6.1194
23.495	109.99	94.4083	6.1194
23.503	109.99	94.4081	6.1194
23.512	109.99	94.4081	6.1194
23.520	109.99	94.4081	6.1194
23.528	109.99	94.4084	6.1194
23.537	109.99	94.4085	6.1194
23.545	109.99	94.4084	6.1194
23.553	109.99	94.4084	6.1194
23.562	109.99	94.4083	6.1194
23.570	109.99	94.4083	6.1194
23.578	109.99	94.4082	6.1194
23.587	109.99	94.4082	6.1194
23.595	109.99	94.4083	6.1194
23.603	109.99	94.4083	6.1194
23.612	109.99	94.4082	6.1194
23.620	109.99	94.4081	6.1194
23.628	109.99	94.4079	6.1194
23.637	110.00	94.4079	6.1194
23.645	110.00	94.4079	6.1194
23.653	110.00	94.4079	6.1194
23.662	110.00	94.4078	6.1194
23.670	110.00	94.4077	6.1194
23.678	110.00	94.4076	6.1194
23.687	110.00	94.4076	6.1194
23.695	110.00	94.4076	6.1194
23.703	110.00	94.4076	6.1194
23.712	110.00	94.4075	6.1194
23.720	110.00	94.4076	6.1194
23.728	110.00	94.4075	6.1194
23.737	110.00	94.4075	6.1194
23.745	110.00	94.4075	6.1194
23.753	110.00	94.4075	6.1194
23.762	110.00	94.4077	6.1194
23.770	110.00	94.4079	6.1194
23.778	110.00	94.4078	6.1194
23.787	110.00	94.4077	6.1194
23.795	110.00	94.4076	6.1194
23.803	110.00	94.4078	6.1194
23.812	110.00	94.4078	6.1194
23.820	110.00	94.4078	6.1194
23.828	110.00	94.4077	6.1194
23.837	110.00	94.4077	6.1194
23.845	110.00	94.4078	6.1194
23.853	110.00	94.4079	6.1194
23.862	110.00	94.4079	6.1194
23.870	110.00	94.4080	6.1194
23.878	110.00	94.4081	6.1194
23.887	110.00	94.4082	6.1194
23.895	110.00	94.4082	6.1194
23.903	110.00	94.4081	6.1194
23.912	110.00	94.4081	6.1194
23.920	110.00	94.4082	6.1194
23.928	110.00	94.4081	6.1194
23.937	110.00	94.4081	6.1194
23.945	110.00	94.4081	6.1194
23.953	110.00	94.4082	6.1194
23.962	110.00	94.4083	6.1194
23.970	110.00	94.4082	6.1194
23.978	110.00	94.4081	6.1194
23.987	110.00	94.4082	6.1194
23.995	110.00	94.4083	6.1194
24.003	110.00	94.4082	6.1194
24.012	110.00	94.4082	6.1194
24.020	110.00	94.4081	6.1194
24.028	110.00	94.4079	6.1194
24.037	110.00	94.4079	6.1194
24.045	110.00	94.4079	6.1194
24.053	110.00	94.4080	6.1194
24.062	110.00	94.4080	6.1194
24.070	110.00	94.4082	6.1194
24.078	110.00	94.4082	6.1194
24.087	110.00	94.4084	6.1194
24.095	110.00	94.4084	6.1194
24.103	110.00	94.4082	6.1194
24.112	110.00	94.4081	6.1194
24.120	110.00	94.4081	6.1194
24.128	110.00	94.4082	6.1194
24.137	110.00	94.4082	6.1194
24.145	110.00	94.4084	6.1194
24.153	110.00	94.4084	6.1194
24.162	110.00	94.4083	6.1194
24.170	110.00	94.4082	6.1194
24.178	109.99	94.4083	6.1194
24.187	109.99	94.4085	6.1194
24.195	109.99	94.4085	6.1194
24.203	109.99	94.4086	6.1194
24.212	109.99	94.4087	6.1194
24.220	109.99	94.4086	6.1194
24.228	109.99	94.4086	6.1194
24.237	109.99	94.4087	6.1194
24.245	109.99	94.4088	6.1194
24.253	109.99	94.4088	6.1194
24.262	109.99	94.4089	6.1195
24.270	109.99	94.4088	6.1194
24.278	109.99	94.4087	6.1194
24.287	109.99	94.4087	6.1194
24.295	109.99	94.4087	6.1194
24.303	109.99	94.4087	6.1194
24.312	109.99	94.4086	6.1194
24.320	109.99	94.4086	6.1194
24.328	109.99	94.4087	6.1194
24.337	109.99	94.4088	6.1195
24.345	109.99	94.4089	6.1195
24.353	109.99	94.4089	6.1195
24.362	109.99	94.4087	6.1194
24.370	109.99	94.4086	6.1194
24.378	109.99	94.4086	6.1194
24.387	109.99	94.4086	6.1194
24.395	109.99	94.4086	6.1194
24.403	109.99	94.4085	6.1194
24.412	109.99	94.4085	6.1194
24.420	109.99	94.4085	6.1194
24.428	109.99	94.4084	6.1194
24.437	109.99	94.4082	6.1194
24.445	109.99	94.4081	6.1194
24.453	109.98	94.4082	6.1194
24.462	109.98	94.4081	6.1194
24.470	109.98	94.4081	6.1194
24.478	109.98	94.4083	6.1194
24.487	109.98	94.4083	6.1194
24.495	109.98	94.4082	6.1194
24.503	109.98	94.4084	6.1194
24.512	109.98	94.4084	6.1194
24.520	109.98	94.4084	6.1194
24.528	109.98	94.4085	6.1194
24.537	109.98	94.4084	6.1194
24.545	109.98	94.4083	6.1194
24.553	109.98	94.4083	6.1194
24.562	109.98	94.4085	6.1194
24.570	109.98	94.4085	6.1194
24.578	109.98	94.4085	6.1194
24.587	109.98	94.4088	6.1194
24.595	109.98	94.4089	6.1195
24.603	109.98	94.4092	6.1195
24.612	109.98	94.4089	6.1195
24.620	109.98	94.4087	6.1194
24.628	109.98	94.4088	6.1194
24.637	109.98	94.4089	6.1195
24.645	109.98	94.4091	6.1195
24.653	109.98	94.4093	6.1195
24.662	109.98	94.4092	6.1195
24.670	109.98	94.4092	6.1195
24.678	109.98	94.4091	6.1195
24.687	109.98	94.4091	6.1195
24.695	109.98	94.4091	6.1195
24.703	109.98	94.4090	6.1195
24.712	109.98	94.4089	6.1195
24.720	109.98	94.4088	6.1194
24.728	109.98	94.4090	6.1195
24.737	109.98	94.4092	6.1195
24.745	109.98	94.4092	6.1195
24.753	109.98	94.4094	6.1195
24.762	109.98	94.4096	6.1195
24.770	109.98	94.4097	6.1195
24.778	109.98	94.4097	6.1195
24.787	109.98	94.4097	6.1195
24.795	109.98	94.4098	6.1195
24.803	109.98	94.4097	6.1195
24.812	109.98	94.4095	6.1195
24.820	109.98	94.4095	6.1195
24.828	109.98	94.4093	6.1195
24.837	109.98	94.4092	6.1195
24.845	109.98	94.4091	6.1195
24.853	109.98	94.4093	6.1195
24.862	109.98	94.4095	6.1195
24.870	109.98	94.4095	6.1195
24.878	109.98	94.4094	6.1195
24.887	109.98	94.4094	6.1195
24.895	109.98	94.4093	6.1195
24.903	109.98	94.4093	6.1195
24.912	109.98	94.4093	6.1195
24.920	109.98	94.4093	6.1195
24.928	109.98	94.4092	6.1195
24.937	109.98	94.4091	6.1195
24.945	109.98	94.4091	6.1195
24.953	109.98	94.4090	6.1195
24.962	109.98	94.4090	6.1195
24.970	109.98	94.4092	6.1195
24.978	109.98	94.4092	6.1195
24.987	109.98	94.4091	6.1195
24.995	109.98	94.4091	6.1195
25.003	109.98	94.4093	6.1195
25.012	109.98	94.4093	6.1195
25.020	109.98	94.4091	6.1195
25.028	109.98	94.4090	6.1195
25.037	109.98	94.4090	6.1195
25.045	109.98	94.4091	6.1195
25.053	109.98	94.4092	6.1195
25.062	109.98	94.4092	6.1195
25.070	109.98	94.4091	6.1195
25.078	109.98	94.4088	6.1194
25.087	109.98	94.4086	6.1194
25.095	109.98	94.4086	6.1194
25.103	109.98	94.4086	6.1194
25.112	109.98	94.4087	6.1194
25.120	109.98	94.4088	6.1194
25.128	109.98	94.4090	6.1195
25.137	109.98	94.4091	6.1195
25.145	109.98	94.4090	6.1195
25.153	109.98	94.4090	6.1195
25.162	109.99	94.4091	6.1195
25.170	109.99	94.4091	6.1195
25.178	109.99	94.4094	6.1195
25.187	109.99	94.4094	6.1195
25.195	109.99	94.4094	6.1195
25.203	109.99	94.4093	6.1195
25.212	109.99	94.4093	6.1195
25.220	109.99	94.4094	6.1195
25.228	109.99	94.4094	6.1195
25.237	109.99	94.4096	6.1195
25.245	109.99	94.4096	6.1195
25.253	109.99	94.4096	6.1195
25.262	109.99	94.4097	6.1195
25.270	109.99	94.4097	6.1195
25.278	109.99	94.4096	6.1195
25.287	109.99	94.4096	6.1195
25.295	109.99	94.4095	6.1195
25.303	109.99	94.4093	6.1195
25.312	109.99	94.4095	6.1195
25.320	109.99	94.4095	6.1195
25.328	109.99	94.4095	6.1195
25.337	109.99	94.4095	6.1195
25.345	109.99	94.4094	6.1195
25.353	109.99	94.4093	6.1195
25.362	109.99	94.4094	6.1195
25.370	109.99	94.4092	6.1195
25.378	109.99	94.4092	6.1195
25.387	109.99	94.4092	6.1195
25.395	109.99	94.4090	6.1195
25.403	109.99	94.4089	6.1195
25.412	109.99	94.4090	6.1195
25.420	109.99	94.4090	6.1195
25.428	109.99	94.4089	6.1195
25.437	109.99	94.4089	6.1195
25.445	109.99	94.4089	6.1195
25.453	109.99	94.4089	6.1195
25.462	109.99	94.4089	6.1195
25.470	109.99	94.4087	6.1194
25.478	109.99	94.4087	6.1194
25.487	109.99	94.4088	6.1194
25.495	109.99	94.4087	6.1194
25.503	109.99	94.4085	6.1194
25.512	109.99	94.4085	6.1194
25.520	109.99	94.4086	6.1194
25.528	109.99	94.4086	6.1194
25.537	109.99	94.4085	6.1194
25.545	109.99	94.4085	6.1194
25.553	109.99	94.4086	6.1194
25.562	109.99	94.4086	6.1194
25.570	109.99	94.4086	6.1194
25.578	109.99	94.4086	6.1194
25.587	109.99	94.4087	6.1194
25.595	109.99	94.4087	6.1194
25.603	109.99	94.4087	6.1194
25.612	109.99	94.4088	6.1194
25.620	109.99	94.4088	6.1194
25.628	109.99	94.4090	6.1195
25.637	109.99	94.4091	6.1195
25.645	109.99	94.4091	6.1195
25.653	109.99	94.4092	6.1195
25.662	109.99	94.4093	6.1195
25.670	109.99	94.4093	6.1195
25.678	109.99	94.4092	6.1195
25.687	109.99	94.4091	6.1195
25.695	109.99	94.4090	6.1195
25.703	109.99	94.4090	6.1195
25.712	109.99	94.4091	6.1195
25.720	109.99	94.4090	6.1195
25.728	109.99	94.4090	6.1195
25.737	109.99	94.4089	6.1195
25.745	109.99	94.4089	6.1195
25.753	109.99	94.4087	6.1194
25.762	109.99	94.4086	6.1194
25.770	109.99	94.4085	6.1194
25.778	109.99	94.4085	6.1194
25.787	109.99	94.4085	6.1194
25.795	109.99	94.4085	6.1194
25.803	109.99	94.4084	6.1194
25.812	109.99	94.4084	6.1194
25.820	109.99	94.4083	6.1194
25.828	109.99	94.4083	6.1194
25.837	109.99	94.4083	6.1194
25.845	109.99	94.4085	6.1194
25.853	109.99	94.4085	6.1194
25.862	109.99	94.4084	6.1194
25.870	109.99	94.4084	6.1194
25.878	109.99	94.4084	6.1194
25.887	109.99	94.4083	6.1194
25.895	109.99	94.4084	6.1194
25.903	109.99	94.4084	6.1194
25.912	109.99	94.4084	6.1194
25.920	109.99	94.4083	6.1194
25.928	109.99	94.4083	6.1194
25.937	109.99	94.4084	6.1194
25.945	109.99	94.4086	6.1194
25.953	109.99	94.4085	6.1194
25.962	109.99	94.4085	6.1194
25.970	109.99	94.4086	6.1194
25.978	109.99	94.4086	6.1194
25.987	109.99	94.4086	6.1194
25.995	109.99	94.4087	6.1194
26.003	109.99	94.4088	6.1194
26.012	109.99	94.4088	6.1194
26.020	109.99	94.4088	6.1194
26.028	109.99	94.4088	6.1194
26.037	109.99	94.4088	6.1194
26.045	109.99	94.4087	6.1194
26.053	109.99	94.4087	6.1194
26.062	109.99	94.4087	6.1194
26.070	109.99	94.4087	6.1194
26.078	109.99	94.4087	6.1194
26.087	109.99	94.4088	6.1194
26.095	109.99	94.4088	6.1194
26.103	109.99	94.4089	6.1195
26.112	109.99	94.4089	6.1195
26.120	109.99	94.4089	6.1195
26.128	109.99	94.4089	6.1195
26.137	109.99	94.4089	6.1195
26.145	109.99	94.4090	6.1195
26.153	109.99	94.4091	6.1195
26.162	109.99	94.4092	6.1195
26.170	109.99	94.4091	6.1195
26.178	109.99	94.4092	6.1195
26.187	109.99	94.4095	6.1195
26.195	109.99	94.4096	6.1195
26.203	109.99	94.4096	6.1195
26.212	109.99	94.4096	6.1195
26.220	109.99	94.4096	6.1195
26.228	109.99	94.4096	6.1195
26.237	109.99	94.4097	6.1195
26.245	109.99	94.4096	6.1195
26.253	109.99	94.4096	6.1195
26.262	109.99	94.4096	6.1195
26.270	109.99	94.4095	6.1195
26.278	109.99	94.4095	6.1195
26.287	109.99	94.4097	6.1195
26.295	109.99	94.4095	6.1195
26.303	109.99	94.4094	6.1195
26.312	109.99	94.4094	6.1195
26.320	109.99	94.4093	6.1195
26.328	109.99	94.4093	6.1195
26.337	109.99	94.4094	6.1195
26.345	109.99	94.4095	6.1195
26.353	109.99	94.4095	6.1195
26.362	109.99	94.4093	6.1195
26.370	109.99	94.4093	6.1195
26.378	109.99	94.4093	6.1195
26.387	109.99	94.4093	6.1195
26.395	109.99	94.4093	6.1195
26.403	109.99	94.4091	6.1195
26.412	109.99	94.4090	6.1195
26.420	109.99	94.4091	6.1195
26.428	109.99	94.4091	6.1195
26.437	109.99	94.4091	6.1195
26.445	109.99	94.4092	6.1195
26.453	109.99	94.4093	6.1195
26.462	109.99	94.4093	6.1195
26.470	109.99	94.4092	6.1195
26.478	109.99	94.4094	6.1195
26.487	109.99	94.4093	6.1195
26.495	109.99	94.4094	6.1195
26.503	109.99	94.4093	6.1195
26.512	109.99	94.4093	6.1195
26.520	109.99	94.4093	6.1195
26.528	109.99	94.4094	6.1195
26.537	109.99	94.4095	6.1195
26.545	109.99	94.4095	6.1195
26.553	109.99	94.4094	6.1195
26.562	109.99	94.4095	6.1195
26.570	109.99	94.4097	6.1195
26.578	109.99	94.4099	6.1195
26.587	109.99	94.4101	6.1195
26.595	109.99	94.4100	6.1195
26.603	109.99	94.4097	6.1195
26.612	109.99	94.4095	6.1195
26.620	109.99	94.4094	6.1195
26.628	109.99	94.4094	6.1195
26.637	109.99	94.4094	6.1195
26.645	109.99	94.4094	6.1195
26.653	109.99	94.4095	6.1195
26.662	109.99	94.4095	6.1195
26.670	109.99	94.4095	6.1195
26.678	109.99	94.4096	6.1195
26.687	109.99	94.4098	6.1195
26.695	109.99	94.4100	6.1195
26.703	109.99	94.4100	6.1195
26.712	109.99	94.4099	6.1195
26.720	109.99	94.4097	6.1195
26.728	109.99	94.4097	6.1195
26.737	109.99	94.4097	6.1195
26.745	109.99	94.4097	6.1195
26.753	109.99	94.4096	6.1195
26.762	109.99	94.4096	6.1195
26.770	109.98	94.4097	6.1195
26.778	109.98	94.4098	6.1195
26.787	109.98	94.4098	6.1195
26.795	109.98	94.4097	6.1195
26.803	109.98	94.4098	6.1195
26.812	109.98	94.4099	6.1195
26.820	109.98	94.4098	6.1195
26.828	109.98	94.4097	6.1195
26.837	109.98	94.4098	6.1195
26.845	109.98	94.4100	6.1195
26.853	109.98	94.4101	6.1195
26.862	109.98	94.4101	6.1195
26.870	109.98	94.4100	6.1195
26.878	109.98	94.4100	6.1195
26.887	109.98	94.4100	6.1195
26.895	109.98	94.4100	6.1195
26.903	109.98	94.4100	6.1195
26.912	109.98	94.4099	6.1195
26.920	109.98	94.4099	6.1195
26.928	109.98	94.4098	6.1195
26.937	109.98	94.4097	6.1195
26.945	109.98	94.4098	6.1195
26.953	109.98	94.4099	6.1195
26.962	109.98	94.4100	6.1195
26.970	109.98	94.4100	6.1195
26.978	109.98	94.4099	6.1195
26.987	109.98	94.4101	6.1195
26.995	109.98	94.4103	6.1195
27.003	109.98	94.4103	6.1195
27.012	109.98	94.4102	6.1195
27.020	109.98	94.4102	6.1195
27.028	109.98	94.4102	6.1195
27.037	109.98	94.4102	6.1195
27.045	109.98	94.4102	6.1195
27.053	109.98	94.4101	6.1195
27.062	109.98	94.4101	6.1195
27.070	109.98	94.4102	6.1195
27.078	109.98	94.4103	6.1195
27.087	109.98	94.4104	6.1195
27.095	109.98	94.4103	6.1195
27.103	109.98	94.4104	6.1195
27.112	109.98	94.4105	6.1196
27.120	109.99	94.4104	6.1195
27.128	109.99	94.4103	6.1195
27.137	109.99	94.4102	6.1195
27.145	109.99	94.4103	6.1195
27.153	109.99	94.4104	6.1195
27.162	109.99	94.4103	6.1195
27.170	109.99	94.4102	6.1195
27.178	109.99	94.4102	6.1195
27.187	109.99	94.4102	6.1195
27.195	109.99	94.4102	6.1195
27.203	109.99	94.4103	6.1195
27.212	109.99	94.4103	6.1195
27.220	109.99	94.4102	6.1195
27.228	109.99	94.4101	6.1195
27.237	109.99	94.4101	6.1195
27.245	109.99	94.4101	6.1195
27.253	109.99	94.4100	6.1195
27.262	109.99	94.4100	6.1195
27.270	109.99	94.4100	6.1195
27.278	109.99	94.4099	6.1195
27.287	109.99	94.4099	6.1195
27.295	109.99	94.4099	6.1195
27.303	109.99	94.4100	6.1195
27.312	109.99	94.4100	6.1195
27.320	109.99	94.4100	6.1195
27.328	109.99	94.4100	6.1195
27.337	109.99	94.4101	6.1195
27.345	109.99	94.4099	6.1195
27.353	109.99	94.4098	6.1195
27.362	109.99	94.4098	6.1195
27.370	109.99	94.4099	6.1195
27.378	109.99	94.4098	6.1195
27.387	109.99	94.4098	6.1195
27.395	109.99	94.4097	6.1195
27.403	109.99	94.4097	6.1195
27.412	109.99	94.4096	6.1195
27.420	109.99	94.4096	6.1195
27.428	109.99	94.4095	6.1195
27.437	109.99	94.4096	6.1195
27.445	109.99	94.4095	6.1195
27.453	109.99	94.4093	6.1195
27.462	109.99	94.4092	6.1195
27.470	109.99	94.4092	6.1195
27.478	109.99	94.4092	6.1195
27.487	109.99	94.4093	6.1195
27.495	109.99	94.4093	6.1195
27.503	109.99	94.4091	6.1195
27.512	109.99	94.4092	6.1195
27.520	109.99	94.4093	6.1195
27.528	109.99	94.4092	6.1195
27.537	109.99	94.4093	6.1195
27.545	110.00	94.4094	6.1195
27.553	110.00	94.4093	6.1195
27.562	110.00	94.4092	6.1195
27.570	110.00	94.4093	6.1195
27.578	110.00	94.4093	6.1195
27.587	110.00	94.4093	6.1195
27.595	110.00	94.4094	6.1195
27.603	110.00	94.4095	6.1195
27.612	110.00	94.4095	6.1195
27.620	110.00	94.4093	6.1195
27.628	110.00	94.4092	6.1195
27.637	110.00	94.4091	6.1195
27.645	110.00	94.4093	6.1195
27.653	110.00	94.4093	6.1195
27.662	110.00	94.4093	6.1195
27.670	110.00	94.4093	6.1195
27.678	110.00	94.4093	6.1195
27.687	110.00	94.4092	6.1195
27.695	110.00	94.4092	6.1195
27.703	110.00	94.4091	6.1195
27.712	110.00	94.4092	6.1195
27.720	110.00	94.4094	6.1195
27.728	110.00	94.4095	6.1195
27.737	110.00	94.4093	6.1195
27.745	110.00	94.4091	6.1195
27.753	110.00	94.4090	6.1195
27.762	110.00	94.4089	6.1195
27.770	110.00	94.4090	6.1195
27.778	110.00	94.4091	6.1195
27.787	110.00	94.4093	6.1195
27.795	110.00	94.4093	6.1195
27.803	110.00	94.4092	6.1195
27.812	110.00	94.4092	6.1195
27.820	110.00	94.4092	6.1195
27.828	110.00	94.4093	6.1195
27.837	110.00	94.4093	6.1195
27.845	110.00	94.4092	6.1195
27.853	110.00	94.4091	6.1195
27.862	110.00	94.4090	6.1195
27.870	110.00	94.4089	6.1195
27.878	110.00	94.4090	6.1195
27.887	110.00	94.4091	6.1195
27.895	110.00	94.4092	6.1195
27.903	110.00	94.4091	6.1195
27.912	110.00	94.4091	6.1195
27.920	110.00	94.4092	6.1195
27.928	110.00	94.4094	6.1195
27.937	110.00	94.4095	6.1195
27.945	110.00	94.4093	6.1195
27.953	110.00	94.4092	6.1195
27.962	110.00	94.4092	6.1195
27.970	110.00	94.4092	6.1195
27.978	110.00	94.4090	6.1195
27.987	110.00	94.4090	6.1195
27.995	110.00	94.4089	6.1195
28.003	110.00	94.4089	6.1195
28.012	110.00	94.4089	6.1195
28.020	110.00	94.4089	6.1195
28.028	110.00	94.4089	6.1195
28.037	110.00	94.4090	6.1195
28.045	110.00	94.4092	6.1195
28.053	110.00	94.4091	6.1195
28.062	110.00	94.4090	6.1195
28.070	110.00	94.4089	6.1195
28.078	110.00	94.4089	6.1195
28.087	110.00	94.4088	6.1194
28.095	109.99	94.4089	6.1195
28.103	109.99	94.4089	6.1195
28.112	109.99	94.4088	6.1194
28.120	109.99	94.4088	6.1194
28.128	109.99	94.4089	6.1195
28.137	109.99	94.4088	6.1194
28.145	109.99	94.4089	6.1195
28.153	109.99	94.4090	6.1195
28.162	109.99	94.4090	6.1195
28.170	109.99	94.4089	6.1195
28.178	109.99	94.4088	6.1194
28.187	109.99	94.4088	6.1194
28.195	109.99	94.4088	6.1194
28.203	109.99	94.4087	6.1194
28.212	109.99	94.4086	6.1194
28.220	109.99	94.4086	6.1194
28.228	109.99	94.4086	6.1194
28.237	109.99	94.4085	6.1194
28.245	109.99	94.4085	6.1194
28.253	109.99	94.4086	6.1194
28.262	109.99	94.4085	6.1194
28.270	109.99	94.4085	6.1194
28.278	109.99	94.4084	6.1194
28.287	109.99	94.4083	6.1194
28.295	109.99	94.4083	6.1194
28.303	109.99	94.4086	6.1194
28.312	109.99	94.4090	6.1195
28.320	109.99	94.4090	6.1195
28.328	109.99	94.4089	6.1195
28.337	109.99	94.4088	6.1194
28.345	109.99	94.4087	6.1194
28.353	109.99	94.4085	6.1194
28.362	109.99	94.4085	6.1194
28.370	110.00	94.4086	6.1194
28.378	110.00	94.4087	6.1194
28.387	110.00	94.4088	6.1194
28.395	110.00	94.4089	6.1195
28.403	110.00	94.4090	6.1195
28.412	110.00	94.4090	6.1195
28.420	110.00	94.4088	6.1194
28.428	110.00	94.4088	6.1194
28.437	110.00	94.4088	6.1194
28.445	110.00	94.4088	6.1194
28.453	110.00	94.4088	6.1194
28.462	110.00	94.4089	6.1195
28.470	110.00	94.4089	6.1195
28.478	110.00	94.4089	6.1195
28.487	110.00	94.4088	6.1194
28.495	110.00	94.4088	6.1194
28.503	110.00	94.4088	6.1194
28.512	110.00	94.4087	6.1194
28.520	110.00	94.4088	6.1194
28.528	110.00	94.4089	6.1195
28.537	110.00	94.4090	6.1195
28.545	110.00	94.4091	6.1195
28.553	110.00	94.4091	6.1195
28.562	110.00	94.4092	6.1195
28.570	110.00	94.4092	6.1195
28.578	110.00	94.4093	6.1195
28.587	110.00	94.4094	6.1195
28.595	110.00	94.4093	6.1195
28.603	110.00	94.4093	6.1195
28.612	110.00	94.4093	6.1195
28.620	110.00	94.4092	6.1195
28.628	110.00	94.4091	6.1195
28.637	110.00	94.4090	6.1195
28.645	110.00	94.4089	6.1195
28.653	110.00	94.4090	6.1195
28.662	110.00	94.4090	6.1195
28.670	110.00	94.4089	6.1195
28.678	110.00	94.4088	6.1194
28.687	110.00	94.4088	6.1194
28.695	110.00	94.4088	6.1194
28.703	110.00	94.4088	6.1194
28.712	110.00	94.4089	6.1195
28.720	110.00	94.4090	6.1195
28.728	110.00	94.4090	6.1195
28.737	110.00	94.4089	6.1195
28.745	110.00	94.4091	6.1195
28.753	110.00	94.4091	6.1195
28.762	110.00	94.4089	6.1195
28.770	110.00	94.4087	6.1194
28.778	110.00	94.4088	6.1194
28.787	110.00	94.4088	6.1194
28.795	110.00	94.4087	6.1194
28.803	110.00	94.4090	6.1195
28.812	110.00	94.4090	6.1195
28.820	110.00	94.4088	6.1194
28.828	110.00	94.4087	6.1194
28.837	110.00	94.4087	6.1194
28.845	110.00	94.4087	6.1194
28.853	110.00	94.4087	6.1194
28.862	110.00	94.4088	6.1194
28.870	110.00	94.4087	6.1194
28.878	110.00	94.4087	6.1194
28.887	110.00	94.4088	6.1194
28.895	110.00	94.4088	6.1194
28.903	110.00	94.4087	6.1194
28.912	110.00	94.4087	6.1194
28.920	110.00	94.4086	6.1194
28.928	110.00	94.4087	6.1194
28.937	110.00	94.4089	6.1195
28.945	110.00	94.4091	6.1195
28.953	110.00	94.4093	6.1195
28.962	110.00	94.4093	6.1195
28.970	110.00	94.4093	6.1195
28.978	110.00	94.4093	6.1195
28.987	110.00	94.4093	6.1195
28.995	110.00	94.4093	6.1195
29.003	110.00	94.4094	6.1195
29.012	110.00	94.4092	6.1195
29.020	110.00	94.4091	6.1195
29.028	110.00	94.4092	6.1195
29.037	110.00	94.4092	6.1195
29.045	110.00	94.4092	6.1195
29.053	110.00	94.4092	6.1195
29.062	110.00	94.4090	6.1195
29.070	110.00	94.4091	6.1195
29.078	110.00	94.4091	6.1195
29.087	110.00	94.4091	6.1195
29.095	110.00	94.4092	6.1195
29.103	110.00	94.4093	6.1195
29.112	110.00	94.4091	6.1195
29.120	110.00	94.4090	6.1195
29.128	110.00	94.4090	6.1195
29.137	110.00	94.4089	6.1195
29.145	110.00	94.4089	6.1195
29.153	110.00	94.4090	6.1195
29.162	110.00	94.4090	6.1195
29.170	110.00	94.4090	6.1195
29.178	110.00	94.4089	6.1195
29.187	110.00	94.4089	6.1195
29.195	110.00	94.4089	6.1195
29.203	110.00	94.4090	6.1195
29.212	110.00	94.4091	6.1195
29.220	110.00	94.4091	6.1195
29.228	110.00	94.4092	6.1195
29.237	110.00	94.4093	6.1195
29.245	110.00	94.4091	6.1195
29.253	110.00	94.4090	6.1195
29.262	110.00	94.4089	6.1195
29.270	110.00	94.4088	6.1194
29.278	110.00	94.4087	6.1194
29.287	110.00	94.4088	6.1194
29.295	110.00	94.4089	6.1195
29.303	110.00	94.4088	6.1194
29.312	110.00	94.4088	6.1194
29.320	110.00	94.4089	6.1195
29.328	110.00	94.4089	6.1195
29.337	110.00	94.4088	6.1194
29.345	110.00	94.4089	6.1195
29.353	110.00	94.4090	6.1195
29.362	110.00	94.4090	6.1195
29.370	110.00	94.4089	6.1195
29.378	110.00	94.4086	6.1194
29.387	110.00	94.4086	6.1194
29.395	110.00	94.4087	6.1194
29.403	110.00	94.4086	6.1194
29.412	110.00	94.4085	6.1194
29.420	110.00	94.4085	6.1194
29.428	110.00	94.4087	6.1194
29.437	110.00	94.4087	6.1194
29.445	110.00	94.4087	6.1194
29.453	110.00	94.4087	6.1194
29.462	110.00	94.4087	6.1194
29.470	110.00	94.4086	6.1194
29.478	110.00	94.4088	6.1194
29.487	110.00	94.4089	6.1195
29.495	110.00	94.4091	6.1195
29.503	110.00	94.4090	6.1195
29.512	110.00	94.4090	6.1195
29.520	110.00	94.4091	6.1195
29.528	110.00	94.4090	6.1195
29.537	110.00	94.4090	6.1195
29.545	110.00	94.4090	6.1195
29.553	110.00	94.4088	6.1194
29.562	110.00	94.4088	6.1194
29.570	110.00	94.4089	6.1195
29.578	110.00	94.4089	6.1195
29.587	110.00	94.4090	6.1195
29.595	110.00	94.4090	6.1195
29.603	110.00	94.4089	6.1195
29.612	110.00	94.4089	6.1195
29.620	110.00	94.4089	6.1195
29.628	110.00	94.4089	6.1195
29.637	110.00	94.4088	6.1195
29.645	110.00	94.4087	6.1194
29.653	110.00	94.4086	6.1194
29.662	110.00	94.4086	6.1194
29.670	110.00	94.4085	6.1194
29.678	110.00	94.4085	6.1194
29.687	109.99	94.4086	6.1194
29.695	109.99	94.4087	6.1194
29.703	109.99	94.4088	6.1194
29.712	109.99	94.4089	6.1195
29.720	109.99	94.4089	6.1195
29.728	109.99	94.4090	6.1195
29.737	109.99	94.4090	6.1195
29.745	109.99	94.4089	6.1195
29.753	109.99	94.4088	6.1194
29.762	109.99	94.4088	6.1194
29.770	109.99	94.4088	6.1194
29.778	109.99	94.4087	6.1194
29.787	109.99	94.4087	6.1194
29.795	109.99	94.4087	6.1194
29.803	109.99	94.4086	6.1194
29.812	109.99	94.4086	6.1194
29.820	109.99	94.4086	6.1194
29.828	109.99	94.4087	6.1194
29.837	109.99	94.4088	6.1194
29.845	109.99	94.4087	6.1194
29.853	109.99	94.4086	6.1194
29.862	109.99	94.4085	6.1194
29.870	109.99	94.4084	6.1194
29.878	109.99	94.4083	6.1194
29.887	109.99	94.4082	6.1194
29.895	109.99	94.4082	6.1194
29.903	109.99	94.4082	6.1194
29.912	110.00	94.4081	6.1194
29.920	110.00	94.4081	6.1194
29.928	110.00	94.4081	6.1194
29.937	110.00	94.4082	6.1194
29.945	110.00	94.4084	6.1194
29.953	110.00	94.4085	6.1194
29.962	110.00	94.4084	6.1194
29.970	110.00	94.4084	6.1194
29.978	110.00	94.4084	6.1194
29.987	110.00	94.4085	6.1194
29.995	110.00	94.4086	6.1194
30.003	110.00	94.4086	6.1194
30.012	110.00	94.4085	6.1194
30.020	110.00	94.4084	6.1194
30.028	110.00	94.4084	6.1194
30.037	110.00	94.4084	6.1194
30.045	110.00	94.4084	6.1194
30.053	110.00	94.4084	6.1194
30.062	110.00	94.4082	6.1194
30.070	110.00	94.4081	6.1194
30.078	110.00	94.4080	6.1194
30.087	110.00	94.4080	6.1194
30.095	110.00	94.4083	6.1194
30.103	110.00	94.4082	6.1194
30.112	110.00	94.4081	6.1194
30.120	110.00	94.4080	6.1194
30.128	110.00	94.4081	6.1194
30.137	110.00	94.4083	6.1194
30.145	110.00	94.4084	6.1194
30.153	110.00	94.4085	6.1194
30.162	110.00	94.4084	6.1194
30.170	110.00	94.4084	6.1194
30.178	110.00	94.4085	6.1194
30.187	110.00	94.4086	6.1194
30.195	110.00	94.4085	6.1194
30.203	110.00	94.4085	6.1194
30.212	110.00	94.4085	6.1194
30.220	110.00	94.4086	6.1194
30.228	110.00	94.4087	6.1194
30.237	110.00	94.4088	6.1194
30.245	110.00	94.4089	6.1195
30.253	110.00	94.4089	6.1195
30.262	110.00	94.4089	6.1195
30.270	110.00	94.4089	6.1195
30.278	110.00	94.4090	6.1195
30.287	110.00	94.4090	6.1195
30.295	110.00	94.4090	6.1195
30.303	110.00	94.4090	6.1195
30.312	110.00	94.4089	6.1195
30.320	110.00	94.4088	6.1194
30.328	110.00	94.4088	6.1194
30.337	110.00	94.4087	6.1194
30.345	110.00	94.4088	6.1194
30.353	110.00	94.4088	6.1194
30.362	110.00	94.4088	6.1195
30.370	110.00	94.4087	6.1194
30.378	110.00	94.4087	6.1194
30.387	110.00	94.4087	6.1194
30.395	110.00	94.4087	6.1194
30.403	110.00	94.4085	6.1194
30.412	110.00	94.4086	6.1194
30.420	110.00	94.4086	6.1194
30.428	110.00	94.4086	6.1194
30.437	110.00	94.4087	6.1194
30.445	110.00	94.4087	6.1194
30.453	110.00	94.4086	6.1194
30.462	110.00	94.4085	6.1194
30.470	110.00	94.4084	6.1194
30.478	110.00	94.4084	6.1194
30.487	110.00	94.4082	6.1194
30.495	110.00	94.4082	6.1194
30.503	110.00	94.4081	6.1194
30.512	110.00	94.4081	6.1194
30.520	110.00	94.4081	6.1194
30.528	110.00	94.4081	6.1194
30.537	110.00	94.4082	6.1194
30.545	110.00	94.4082	6.1194
30.553	110.00	94.4082	6.1194
30.562	110.00	94.4082	6.1194
30.570	110.00	94.4082	6.1194
30.578	110.00	94.4084	6.1194
30.587	110.00	94.4085	6.1194
30.595	110.00	94.4085	6.1194
30.603	110.00	94.4085	6.1194
30.612	110.00	94.4087	6.1194
30.620	110.00	94.4088	6.1194
30.628	110.00	94.4091	6.1195
30.637	110.00	94.4093	6.1195
30.645	110.00	94.4094	6.1195
30.653	110.00	94.4094	6.1195
30.662	110.00	94.4093	6.1195
30.670	110.00	94.4093	6.1195
30.678	110.00	94.4092	6.1195
30.687	110.00	94.4091	6.1195
30.695	110.00	94.4089	6.1195
30.703	110.00	94.4089	6.1195
30.712	110.00	94.4089	6.1195
30.720	110.00	94.4088	6.1194
30.728	110.00	94.4088	6.1194
30.737	110.00	94.4088	6.1194
30.745	110.00	94.4089	6.1195
30.753	110.00	94.4090	6.1195
30.762	110.00	94.4090	6.1195
30.770	110.00	94.4091	6.1195
30.778	110.00	94.4091	6.1195
30.787	110.00	94.4090	6.1195
30.795	110.00	94.4089	6.1195
30.803	110.00	94.4089	6.1195
30.812	110.00	94.4089	6.1195
30.820	110.00	94.4087	6.1194
30.828	110.00	94.4087	6.1194
30.837	110.00	94.4087	6.1194
30.845	110.00	94.4087	6.1194
30.853	110.00	94.4088	6.1194
30.862	110.00	94.4088	6.1194
30.870	110.00	94.4089	6.1195
30.878	110.00	94.4090	6.1195
30.887	110.00	94.4090	6.1195
30.895	110.00	94.4091	6.1195
30.903	110.00	94.4090	6.1195
30.912	110.00	94.4091	6.1195
30.920	110.00	94.4093	6.1195
30.928	110.00	94.4092	6.1195
30.937	110.00	94.4092	6.1195
30.945	110.00	94.4090	6.1195
30.953	110.00	94.4089	6.1195
30.962	110.00	94.4088	6.1194
30.970	110.00	94.4089	6.1195
30.978	110.00	94.4089	6.1195
30.987	110.00	94.4088	6.1195
30.995	110.00	94.4088	6.1194
31.003	110.00	94.4089	6.1195
31.012	110.00	94.4091	6.1195
31.020	110.00	94.4089	6.1195
31.028	110.00	94.4088	6.1194
31.037	110.00	94.4087	6.1194
31.045	110.01	94.4088	6.1194
31.053	110.01	94.4088	6.1194
31.062	110.01	94.4088	6.1195
31.070	110.01	94.4089	6.1195
31.078	110.01	94.4089	6.1195
31.087	110.01	94.4090	6.1195
31.095	110.01	94.4091	6.1195
31.103	110.01	94.4090	6.1195
31.112	110.00	94.4088	6.1194
31.120	110.00	94.4086	6.1194
31.128	110.00	94.4086	6.1194
31.137	110.00	94.4085	6.1194
31.145	110.00	94.4086	6.1194
31.153	110.00	94.4087	6.1194
31.162	110.00	94.4088	6.1194
31.170	110.00	94.4091	6.1195
31.178	110.00	94.4093	6.1195
31.187	110.00	94.4094	6.1195
31.195	110.00	94.4094	6.1195
31.203	110.00	94.4093	6.1195
31.212	110.00	94.4093	6.1195
31.220	110.00	94.4092	6.1195
31.228	110.00	94.4090	6.1195
31.237	110.00	94.4089	6.1195
31.245	110.00	94.4089	6.1195
31.253	110.00	94.4089	6.1195
31.262	110.00	94.4090	6.1195
31.270	110.00	94.4089	6.1195
31.278	110.00	94.4087	6.1194
31.287	110.00	94.4086	6.1194
31.295	110.00	94.4086	6.1194
31.303	110.00	94.4087	6.1194
31.312	109.99	94.4086	6.1194
31.320	109.99	94.4086	6.1194
31.328	109.99	94.4086	6.1194
31.337	109.99	94.4085	6.1194
31.345	109.99	94.4084	6.1194
31.353	109.99	94.4085	6.1194
31.362	109.99	94.4085	6.1194
31.370	109.99	94.4086	6.1194
31.378	109.99	94.4085	6.1194
31.387	109.99	94.4084	6.1194
31.395	109.99	94.4084	6.1194
31.403	109.99	94.4083	6.1194
31.412	109.99	94.4084	6.1194
31.420	109.99	94.4085	6.1194
31.428	109.99	94.4088	6.1194
31.437	109.99	94.4087	6.1194
31.445	109.99	94.4086	6.1194
31.453	109.99	94.4086	6.1194
31.462	109.99	94.4085	6.1194
31.470	109.99	94.4084	6.1194
31.478	109.99	94.4084	6.1194
31.487	109.99	94.4084	6.1194
31.495	109.99	94.4083	6.1194
31.503	109.99	94.4083	6.1194
31.512	109.99	94.4083	6.1194
31.520	109.99	94.4083	6.1194
31.528	109.99	94.4084	6.1194
31.537	109.99	94.4083	6.1194
31.545	109.99	94.4082	6.1194
31.553	109.99	94.4083	6.1194
31.562	109.99	94.4083	6.1194
31.570	109.99	94.4082	6.1194
31.578	109.99	94.4082	6.1194
31.587	109.99	94.4082	6.1194
31.595	109.99	94.4081	6.1194
31.603	109.99	94.4081	6.1194
31.612	109.99	94.4080	6.1194
31.620	109.99	94.4081	6.1194
31.628	109.99	94.4081	6.1194
31.637	109.99	94.4080	6.1194
31.645	109.99	94.4081	6.1194
31.653	109.99	94.4082	6.1194
31.662	109.99	94.4083	6.1194
31.670	109.99	94.4083	6.1194
31.678	109.99	94.4083	6.1194
31.687	110.00	94.4084	6.1194
31.695	110.00	94.4084	6.1194
31.703	110.00	94.4084	6.1194
31.712	110.00	94.4084	6.1194
31.720	110.00	94.4083	6.1194
31.728	110.00	94.4082	6.1194
31.737	110.00	94.4082	6.1194
31.745	110.00	94.4081	6.1194
31.753	110.00	94.4081	6.1194
31.762	110.00	94.4081	6.1194
31.770	110.00	94.4081	6.1194
31.778	110.00	94.4082	6.1194
31.787	110.00	94.4085	6.1194
31.795	110.00	94.4085	6.1194
31.803	110.00	94.4084	6.1194
31.812	110.00	94.4085	6.1194
31.820	110.00	94.4085	6.1194
31.828	110.00	94.4085	6.1194
31.837	110.00	94.4085	6.1194
31.845	110.00	94.4086	6.1194
31.853	110.00	94.4086	6.1194
31.862	110.00	94.4086	6.1194
31.870	110.00	94.4086	6.1194
31.878	110.00	94.4084	6.1194
31.887	110.00	94.4083	6.1194
31.895	110.00	94.4082	6.1194
31.903	110.00	94.4082	6.1194
31.912	110.00	94.4082	6.1194
31.920	110.00	94.4083	6.1194
31.928	110.00	94.4082	6.1194
31.937	110.00	94.4081	6.1194
31.945	110.00	94.4083	6.1194
31.953	110.00	94.4084	6.1194
31.962	110.00	94.4083	6.1194
31.970	110.00	94.4082	6.1194
31.978	110.00	94.4081	6.1194
31.987	110.00	94.4080	6.1194
31.995	110.00	94.4081	6.1194
32.003	110.00	94.4080	6.1194
32.012	110.00	94.4079	6.1194
32.020	110.00	94.4079	6.1194
32.028	110.00	94.4079	6.1194
32.037	110.00	94.4079	6.1194
32.045	110.00	94.4079	6.1194
32.053	110.00	94.4080	6.1194
32.062	110.00	94.4081	6.1194
32.070	110.00	94.4081	6.1194
32.078	110.00	94.4080	6.1194
32.087	110.00	94.4079	6.1194
32.095	110.00	94.4078	6.1194
32.103	110.00	94.4078	6.1194
32.112	110.00	94.4079	6.1194
32.120	110.00	94.4080	6.1194
32.128	110.00	94.4079	6.1194
32.137	110.00	94.4077	6.1194
32.145	110.00	94.4077	6.1194
32.153	110.00	94.4078	6.1194
32.162	110.00	94.4079	6.1194
32.170	110.00	94.4079	6.1194
32.178	110.00	94.4079	6.1194
32.187	110.00	94.4079	6.1194
32.195	110.00	94.4079	6.1194
32.203	110.00	94.4081	6.1194
32.212	110.00	94.4083	6.1194
32.220	110.00	94.4083	6.1194
32.228	110.00	94.4081	6.1194
32.237	110.00	94.4080	6.1194
32.245	110.00	94.4081	6.1194
32.253	110.00	94.4081	6.1194
32.262	110.00	94.4081	6.1194
32.270	110.00	94.4081	6.1194
32.278	110.00	94.4079	6.1194
32.287	110.00	94.4077	6.1194
32.295	110.00	94.4078	6.1194
32.303	110.00	94.4079	6.1194
32.312	110.00	94.4078	6.1194
32.320	110.00	94.4078	6.1194
32.328	110.00	94.4078	6.1194
32.337	110.00	94.4077	6.1194
32.345	110.00	94.4077	6.1194
32.353	110.00	94.4077	6.1194
32.362	110.00	94.4077	6.1194
32.370	110.00	94.4076	6.1194
32.378	110.00	94.4076	6.1194
32.387	110.00	94.4075	6.1194
32.395	110.00	94.4076	6.1194
32.403	110.00	94.4075	6.1194
32.412	110.00	94.4075	6.1194
32.420	110.00	94.4075	6.1194
32.428	110.00	94.4074	6.1194
32.437	110.00	94.4074	6.1194
32.445	110.00	94.4074	6.1194
32.453	110.00	94.4074	6.1194
32.462	110.00	94.4074	6.1194
32.470	110.00	94.4075	6.1194
32.478	110.00	94.4078	6.1194
32.487	110.00	94.4077	6.1194
32.495	110.00	94.4075	6.1194
32.503	110.00	94.4074	6.1194
32.512	110.00	94.4073	6.1193
32.520	110.00	94.4073	6.1193
32.528	110.00	94.4073	6.1193
32.537	110.00	94.4073	6.1193
32.545	110.00	94.4073	6.1193
32.553	110.00	94.4073	6.1194
32.562	110.00	94.4073	6.1194
32.570	110.00	94.4072	6.1193
32.578	110.00	94.4071	6.1193
32.587	110.00	94.4070	6.1193
32.595	110.00	94.4071	6.1193
32.603	110.00	94.4071	6.1193
32.612	110.00	94.4069	6.1193
32.620	110.00	94.4069	6.1193
32.628	110.00	94.4069	6.1193
32.637	110.00	94.4068	6.1193
32.645	110.00	94.4069	6.1193
32.653	110.00	94.4069	6.1193
32.662	110.00	94.4069	6.1193
32.670	110.00	94.4068	6.1193
32.678	110.00	94.4069	6.1193
32.687	110.00	94.4071	6.1193
32.695	110.00	94.4071	6.1193
32.703	110.00	94.4071	6.1193
32.712	110.00	94.4071	6.1193
32.720	110.00	94.4071	6.1193
32.728	110.00	94.4072	6.1193
32.737	110.00	94.4072	6.1193
32.745	110.00	94.4072	6.1193
32.753	110.00	94.4072	6.1193
32.762	110.00	94.4071	6.1193
32.770	110.00	94.4073	6.1193
32.778	110.00	94.4075	6.1194
32.787	110.00	94.4076	6.1194
32.795	110.00	94.4076	6.1194
32.803	110.00	94.4078	6.1194
32.812	110.00	94.4079	6.1194
32.820	110.00	94.4078	6.1194
32.828	110.00	94.4078	6.1194
32.837	110.00	94.4078	6.1194
32.845	110.00	94.4078	6.1194
32.853	110.00	94.4078	6.1194
32.862	110.00	94.4079	6.1194
32.870	110.00	94.4079	6.1194
32.878	110.00	94.4078	6.1194
32.887	110.00	94.4079	6.1194
32.895	110.00	94.4080	6.1194
32.903	110.00	94.4079	6.1194
32.912	110.00	94.4076	6.1194
32.920	110.00	94.4075	6.1194
32.928	110.00	94.4075	6.1194
32.937	110.00	94.4075	6.1194
32.945	110.00	94.4074	6.1194
32.953	110.00	94.4073	6.1194
32.962	110.00	94.4074	6.1194
32.970	110.00	94.4075	6.1194
32.978	110.00	94.4073	6.1194
32.987	110.00	94.4072	6.1193
32.995	110.00	94.4072	6.1193
33.003	110.00	94.4071	6.1193
33.012	110.00	94.4070	6.1193
33.020	110.00	94.4071	6.1193
33.028	110.00	94.4070	6.1193
33.037	110.00	94.4071	6.1193
33.045	110.00	94.4072	6.1193
33.053	110.00	94.4073	6.1194
33.062	110.00	94.4074	6.1194
33.070	110.00	94.4074	6.1194
33.078	110.00	94.4075	6.1194
33.087	110.00	94.4075	6.1194
33.095	110.00	94.4074	6.1194
33.103	110.00	94.4072	6.1193
33.112	110.00	94.4072	6.1193
33.120	110.00	94.4072	6.1193
33.128	110.00	94.4073	6.1193
33.137	110.00	94.4073	6.1193
33.145	110.00	94.4073	6.1193
33.153	110.00	94.4073	6.1194
33.162	110.00	94.4073	6.1193
33.170	110.00	94.4073	6.1193
33.178	110.00	94.4073	6.1194
33.187	110.00	94.4074	6.1194
33.195	110.00	94.4074	6.1194
33.203	110.00	94.4074	6.1194
33.212	110.00	94.4075	6.1194
33.220	110.00	94.4075	6.1194
33.228	110.00	94.4074	6.1194
33.237	110.00	94.4076	6.1194
33.245	110.00	94.4078	6.1194
33.253	110.00	94.4077	6.1194
33.262	110.00	94.4075	6.1194
33.270	110.00	94.4073	6.1194
33.278	110.00	94.4074	6.1194
33.287	110.00	94.4076	6.1194
33.295	110.00	94.4075	6.1194
33.303	110.00	94.4074	6.1194
33.312	110.00	94.4076	6.1194
33.320	110.00	94.4076	6.1194
33.328	110.00	94.4075	6.1194
33.337	110.00	94.4077	6.1194
33.345	110.00	94.4079	6.1194
33.353	110.00	94.4079	6.1194
33.362	110.00	94.4079	6.1194
33.370	110.00	94.4079	6.1194
33.378	110.00	94.4080	6.1194
33.387	110.00	94.4080	6.1194
33.395	110.00	94.4080	6.1194
33.403	110.00	94.4079	6.1194
33.412	110.00	94.4080	6.1194
33.420	110.00	94.4081	6.1194
33.428	110.00	94.4083	6.1194
33.437	110.00	94.4083	6.1194
33.445	110.00	94.4083	6.1194
33.453	110.00	94.4082	6.1194
33.462	110.00	94.4081	6.1194
33.470	110.00	94.4082	6.1194
33.478	110.00	94.4081	6.1194
33.487	110.00	94.4080	6.1194
33.495	110.00	94.4080	6.1194
33.503	110.00	94.4081	6.1194
33.512	110.00	94.4080	6.1194
33.520	110.00	94.4079	6.1194
33.528	110.00	94.4079	6.1194
33.537	110.00	94.4078	6.1194
33.545	110.00	94.4079	6.1194
33.553	110.00	94.4080	6.1194
33.562	110.00	94.4080	6.1194
33.570	110.00	94.4080	6.1194
33.578	110.00	94.4081	6.1194
33.587	110.00	94.4080	6.1194
33.595	110.00	94.4079	6.1194
33.603	110.00	94.4079	6.1194
33.612	110.00	94.4079	6.1194
33.620	110.00	94.4078	6.1194
33.628	110.00	94.4079	6.1194
33.637	110.00	94.4080	6.1194
33.645	110.00	94.4079	6.1194
33.653	110.00	94.4079	6.1194
33.662	110.00	94.4079	6.1194
33.670	110.00	94.4081	6.1194
33.678	110.00	94.4080	6.1194
33.687	110.00	94.4080	6.1194
33.695	110.00	94.4080	6.1194
33.703	110.00	94.4081	6.1194
33.712	110.00	94.4082	6.1194
33.720	110.00	94.4082	6.1194
33.728	110.00	94.4083	6.1194
33.737	110.00	94.4083	6.1194
33.745	110.00	94.4082	6.1194
33.753	110.00	94.4082	6.1194
33.762	110.00	94.4081	6.1194
33.770	110.00	94.4081	6.1194
33.778	110.00	94.4081	6.1194
33.787	110.00	94.4082	6.1194
33.795	110.00	94.4083	6.1194
33.803	110.00	94.4082	6.1194
33.812	110.00	94.4081	6.1194
33.820	110.00	94.4081	6.1194
33.828	110.00	94.4080	6.1194
33.837	110.00	94.4079	6.1194
33.845	110.00	94.4081	6.1194
33.853	110.00	94.4080	6.1194
33.862	110.00	94.4080	6.1194
33.870	110.00	94.4080	6.1194
33.878	110.00	94.4080	6.1194
33.887	110.00	94.4080	6.1194
33.895	110.00	94.4080	6.1194
33.903	110.00	94.4079	6.1194
33.912	110.00	94.4079	6.1194
33.920	110.00	94.4079	6.1194
33.928	110.00	94.4079	6.1194
33.937	110.00	94.4078	6.1194
33.945	110.00	94.4077	6.1194
33.953	110.00	94.4080	6.1194
33.962	110.00	94.4080	6.1194
33.970	110.00	94.4080	6.1194
33.978	110.00	94.4080	6.1194
33.987	110.00	94.4080	6.1194
33.995	110.00	94.4079	6.1194
34.003	110.00	94.4080	6.1194
34.012	110.00	94.4081	6.1194
34.020	110.01	94.4082	6.1194
34.028	110.01	94.4081	6.1194
34.037	110.01	94.4081	6.1194
34.045	110.01	94.4081	6.1194
34.053	110.01	94.4083	6.1194
34.062	110.01	94.4083	6.1194
34.070	110.01	94.4083	6.1194
34.078	110.01	94.4084	6.1194
34.087	110.01	94.4084	6.1194
34.095	110.01	94.4084	6.1194
34.103	110.01	94.4084	6.1194
34.112	110.01	94.4084	6.1194
34.120	110.01	94.4084	6.1194
34.128	110.01	94.4084	6.1194
34.137	110.01	94.4084	6.1194
34.145	110.01	94.4085	6.1194
34.153	110.01	94.4087	6.1194
34.162	110.01	94.4086	6.1194
34.170	110.01	94.4087	6.1194
34.178	110.01	94.4086	6.1194
34.187	110.01	94.4084	6.1194
34.195	110.01	94.4083	6.1194
34.203	110.01	94.4084	6.1194
34.212	110.00	94.4085	6.1194
34.220	110.00	94.4085	6.1194
34.228	110.00	94.4084	6.1194
34.237	110.00	94.4085	6.1194
34.245	110.00	94.4084	6.1194
34.253	110.00	94.4084	6.1194
34.262	110.00	94.4085	6.1194
34.270	110.00	94.4084	6.1194
34.278	110.00	94.4083	6.1194
34.287	110.00	94.4084	6.1194
34.295	110.00	94.4083	6.1194
34.303	110.00	94.4083	6.1194
34.312	110.00	94.4082	6.1194
34.320	110.00	94.4083	6.1194
34.328	110.00	94.4083	6.1194
34.337	110.00	94.4082	6.1194
34.345	110.00	94.4081	6.1194
34.353	110.00	94.4081	6.1194
34.362	110.00	94.4082	6.1194
34.370	110.00	94.4082	6.1194
34.378	110.00	94.4082	6.1194
34.387	110.00	94.4081	6.1194
34.395	110.00	94.4080	6.1194
34.403	110.00	94.4079	6.1194
34.412	110.00	94.4079	6.1194
34.420	110.00	94.4080	6.1194
34.428	110.00	94.4081	6.1194
34.437	110.00	94.4081	6.1194
34.445	110.00	94.4082	6.1194
34.453	110.00	94.4083	6.1194
34.462	110.00	94.4083	6.1194
34.470	110.00	94.4082	6.1194
34.478	110.00	94.4081	6.1194
34.487	110.00	94.4080	6.1194
34.495	110.00	94.4080	6.1194
34.503	110.00	94.4081	6.1194
34.512	110.00	94.4082	6.1194
34.520	110.00	94.4082	6.1194
34.528	110.00	94.4083	6.1194
34.537	110.00	94.4082	6.1194
34.545	110.00	94.4081	6.1194
34.553	110.00	94.4081	6.1194
34.562	110.00	94.4081	6.1194
34.570	110.00	94.4081	6.1194
34.578	110.00	94.4080	6.1194
34.587	110.00	94.4079	6.1194
34.595	110.00	94.4079	6.1194
34.603	110.00	94.4080	6.1194
34.612	110.00	94.4081	6.1194
34.620	110.00	94.4083	6.1194
34.628	110.00	94.4084	6.1194
34.637	110.00	94.4085	6.1194
34.645	110.00	94.4085	6.1194
34.653	110.00	94.4084	6.1194
34.662	110.00	94.4083	6.1194
34.670	110.00	94.4085	6.1194
34.678	110.00	94.4086	6.1194
34.687	110.00	94.4084	6.1194
34.695	110.00	94.4085	6.1194
34.703	110.00	94.4086	6.1194
34.712	110.00	94.4087	6.1194
34.720	110.00	94.4088	6.1194
34.728	110.00	94.4089	6.1195
34.737	110.00	94.4088	6.1194
34.745	110.00	94.4087	6.1194
34.753	110.00	94.4087	6.1194
34.762	110.00	94.4088	6.1194
34.770	110.00	94.4088	6.1194
34.778	110.00	94.4088	6.1194
34.787	110.00	94.4088	6.1194
34.795	110.00	94.4089	6.1195
34.803	110.00	94.4087	6.1194
34.812	110.00	94.4086	6.1194
34.820	110.00	94.4087	6.1194
34.828	110.00	94.4087	6.1194
34.837	110.00	94.4087	6.1194
34.845	110.00	94.4085	6.1194
34.853	110.00	94.4086	6.1194
34.862	110.00	94.4085	6.1194
34.870	110.00	94.4083	6.1194
34.878	110.00	94.4082	6.1194
34.887	110.00	94.4082	6.1194
34.895	110.00	94.4082	6.1194
34.903	110.00	94.4085	6.1194
34.912	110.00	94.4085	6.1194
34.920	110.00	94.4082	6.1194
34.928	110.00	94.4081	6.1194
34.937	110.00	94.4081	6.1194
34.945	110.00	94.4080	6.1194
34.953	110.00	94.4079	6.1194
34.962	110.00	94.4079	6.1194
34.970	110.00	94.4078	6.1194
34.978	110.00	94.4077	6.1194
34.987	110.00	94.4077	6.1194
34.995	110.00	94.4076	6.1194
35.003	110.00	94.4076	6.1194
35.012	110.00	94.4075	6.1194
35.020	110.00	94.4074	6.1194
35.028	110.00	94.4075	6.1194
35.037	110.00	94.4076	6.1194
35.045	110.00	94.4076	6.1194
35.053	110.00	94.4075	6.1194
35.062	110.00	94.4077	6.1194
35.070	110.00	94.4077	6.1194
35.078	110.00	94.4078	6.1194
35.087	110.00	94.4077	6.1194
35.095	110.00	94.4077	6.1194
35.103	110.00	94.4078	6.1194
35.112	110.00	94.4078	6.1194
35.120	109.99	94.4077	6.1194
35.128	110.00	94.4077	6.1194
35.137	110.00	94.4078	6.1194
35.145	110.00	94.4077	6.1194
35.153	110.00	94.4075	6.1194
35.162	110.00	94.4074	6.1194
35.170	110.00	94.4074	6.1194
35.178	110.00	94.4073	6.1194
35.187	110.00	94.4073	6.1194
35.195	110.00	94.4072	6.1193
35.203	110.00	94.4072	6.1193
35.212	110.00	94.4073	6.1193
35.220	110.00	94.4073	6.1193
35.228	110.00	94.4076	6.1194
35.237	110.00	94.4076	6.1194
35.245	110.00	94.4075	6.1194
35.253	110.00	94.4075	6.1194
35.262	110.00	94.4075	6.1194
35.270	110.00	94.4075	6.1194
35.278	110.00	94.4075	6.1194
35.287	110.00	94.4075	6.1194
35.295	110.00	94.4074	6.1194
35.303	110.00	94.4073	6.1193
35.312	110.00	94.4072	6.1193
35.320	110.00	94.4073	6.1194
35.328	110.00	94.4074	6.1194
35.337	110.00	94.4074	6.1194
35.345	110.00	94.4074	6.1194
35.353	110.00	94.4075	6.1194
35.362	110.00	94.4075	6.1194
35.370	110.00	94.4076	6.1194
35.378	110.00	94.4076	6.1194
35.387	110.00	94.4077	6.1194
35.395	110.00	94.4078	6.1194
35.403	110.00	94.4077	6.1194
35.412	110.00	94.4077	6.1194
35.420	110.00	94.4078	6.1194
35.428	110.00	94.4078	6.1194
35.437	110.00	94.4077	6.1194
35.445	110.00	94.4076	6.1194
35.453	110.00	94.4076	6.1194
35.462	110.00	94.4075	6.1194
35.470	110.00	94.4076	6.1194
35.478	110.00	94.4076	6.1194
35.487	110.00	94.4076	6.1194
35.495	110.00	94.4075	6.1194
35.503	110.00	94.4075	6.1194
35.512	110.00	94.4074	6.1194
35.520	110.00	94.4075	6.1194
35.528	110.00	94.4076	6.1194
35.537	110.00	94.4076	6.1194
35.545	110.00	94.4077	6.1194
35.553	110.00	94.4078	6.1194
35.562	110.00	94.4080	6.1194
35.570	110.00	94.4077	6.1194
35.578	110.00	94.4076	6.1194
35.587	110.00	94.4076	6.1194
35.595	110.00	94.4077	6.1194
35.603	110.00	94.4076	6.1194
35.612	110.00	94.4074	6.1194
35.620	110.00	94.4073	6.1194
35.628	110.00	94.4073	6.1194
35.637	110.00	94.4074	6.1194
35.645	110.00	94.4074	6.1194
35.653	110.00	94.4075	6.1194
35.662	110.00	94.4074	6.1194
35.670	110.00	94.4074	6.1194
35.678	110.00	94.4074	6.1194
35.687	110.00	94.4074	6.1194
35.695	110.00	94.4074	6.1194
35.703	110.00	94.4074	6.1194
35.712	110.00	94.4075	6.1194
35.720	110.00	94.4075	6.1194
35.728	110.00	94.4075	6.1194
35.737	110.00	94.4076	6.1194
35.745	110.00	94.4078	6.1194
35.753	110.00	94.4078	6.1194
35.762	110.00	94.4077	6.1194
35.770	110.00	94.4076	6.1194
35.778	110.00	94.4076	6.1194
35.787	110.00	94.4076	6.1194
35.795	110.01	94.4077	6.1194
35.803	110.01	94.4078	6.1194
35.812	110.01	94.4079	6.1194
35.820	110.01	94.4078	6.1194
35.828	110.01	94.4079	6.1194
35.837	110.01	94.4079	6.1194
35.845	110.01	94.4079	6.1194
35.853	110.01	94.4080	6.1194
35.862	110.01	94.4080	6.1194
35.870	110.01	94.4081	6.1194
35.878	110.01	94.4083	6.1194
35.887	110.01	94.4083	6.1194
35.895	110.01	94.4083	6.1194
35.903	110.01	94.4083	6.1194
35.912	110.01	94.4085	6.1194
35.920	110.01	94.4087	6.1194
35.928	110.01	94.4085	6.1194
35.937	110.01	94.4084	6.1194
35.945	110.01	94.4084	6.1194
35.953	110.01	94.4084	6.1194
35.962	110.01	94.4086	6.1194
35.970	110.01	94.4087	6.1194
35.978	110.01	94.4085	6.1194
35.987	110.01	94.4084	6.1194
35.995	110.01	94.4082	6.1194
36.003	110.01	94.4081	6.1194
36.012	110.01	94.4082	6.1194
36.020	110.01	94.4083	6.1194
36.028	110.00	94.4084	6.1194
36.037	110.00	94.4085	6.1194
36.045	110.00	94.4085	6.1194
36.053	110.00	94.4085	6.1194
36.062	110.00	94.4086	6.1194
36.070	110.00	94.4087	6.1194
36.078	110.00	94.4086	6.1194
36.087	110.00	94.4085	6.1194
36.095	110.00	94.4087	6.1194
36.103	110.00	94.4087	6.1194
36.112	110.00	94.4086	6.1194
36.120	110.00	94.4086	6.1194
36.128	110.00	94.4086	6.1194
36.137	110.00	94.4087	6.1194
36.145	110.00	94.4088	6.1194
36.153	110.00	94.4089	6.1195
36.162	110.00	94.4089	6.1195
36.170	110.00	94.4088	6.1194
36.178	110.00	94.4089	6.1195
36.187	110.00	94.4089	6.1195
36.195	110.00	94.4088	6.1194
36.203	110.00	94.4087	6.1194
36.212	110.00	94.4086	6.1194
36.220	110.00	94.4086	6.1194
36.228	110.00	94.4085	6.1194
36.237	110.00	94.4085	6.1194
36.245	110.00	94.4086	6.1194
36.253	110.00	94.4086	6.1194
36.262	110.00	94.4085	6.1194
36.270	110.00	94.4085	6.1194
36.278	110.00	94.4084	6.1194
36.287	110.00	94.4084	6.1194
36.295	110.00	94.4085	6.1194
36.303	110.00	94.4084	6.1194
36.312	110.00	94.4083	6.1194
36.320	110.00	94.4082	6.1194
36.328	110.00	94.4081	6.1194
36.337	110.00	94.4080	6.1194
36.345	110.00	94.4080	6.1194
36.353	110.00	94.4080	6.1194
36.362	110.00	94.4081	6.1194
36.370	110.00	94.4082	6.1194
36.378	110.00	94.4081	6.1194
36.387	110.00	94.4081	6.1194
36.395	110.00	94.4080	6.1194
36.403	110.00	94.4080	6.1194
36.412	110.00	94.4082	6.1194
36.420	110.00	94.4081	6.1194
36.428	110.00	94.4080	6.1194
36.437	110.00	94.4082	6.1194
36.445	110.00	94.4082	6.1194
36.453	110.00	94.4081	6.1194
36.462	110.00	94.4080	6.1194
36.470	110.00	94.4080	6.1194
36.478	110.00	94.4080	6.1194
36.487	110.00	94.4080	6.1194
36.495	110.00	94.4079	6.1194
36.503	110.00	94.4080	6.1194
36.512	110.00	94.4081	6.1194
36.520	110.00	94.4081	6.1194
36.528	110.00	94.4081	6.1194
36.537	110.00	94.4080	6.1194
36.545	110.00	94.4080	6.1194
36.553	110.00	94.4080	6.1194
36.562	110.00	94.4080	6.1194
36.570	110.00	94.4080	6.1194
36.578	110.00	94.4079	6.1194
36.587	110.00	94.4080	6.1194
36.595	110.00	94.4081	6.1194
36.603	110.00	94.4080	6.1194
36.612	110.00	94.4081	6.1194
36.620	110.00	94.4081	6.1194
36.628	110.00	94.4080	6.1194
36.637	110.00	94.4081	6.1194
36.645	110.00	94.4081	6.1194
36.653	110.00	94.4081	6.1194
36.662	110.00	94.4082	6.1194
36.670	110.00	94.4082	6.1194
36.678	110.00	94.4081	6.1194
36.687	110.00	94.4082	6.1194
36.695	110.00	94.4083	6.1194
36.703	110.00	94.4082	6.1194
36.712	110.00	94.4082	6.1194
36.720	110.00	94.4083	6.1194
36.728	110.00	94.4082	6.1194
36.737	110.00	94.4081	6.1194
36.745	110.00	94.4081	6.1194
36.753	110.00	94.4080	6.1194
36.762	110.00	94.4079	6.1194
36.770	110.00	94.4079	6.1194
36.778	110.00	94.4079	6.1194
36.787	110.00	94.4079	6.1194
36.795	110.00	94.4079	6.1194
36.803	110.00	94.4078	6.1194
36.812	110.00	94.4079	6.1194
36.820	110.00	94.4080	6.1194
36.828	110.00	94.4079	6.1194
36.837	110.00	94.4078	6.1194
36.845	110.00	94.4079	6.1194
36.853	110.00	94.4078	6.1194
36.862	110.00	94.4077	6.1194
36.870	110.00	94.4076	6.1194
36.878	110.00	94.4076	6.1194
36.887	110.00	94.4077	6.1194
36.895	110.00	94.4076	6.1194
36.903	110.00	94.4076	6.1194
36.912	110.00	94.4078	6.1194
36.920	110.00	94.4077	6.1194
36.928	110.00	94.4076	6.1194
36.937	110.00	94.4076	6.1194
36.945	110.00	94.4076	6.1194
36.953	110.00	94.4077	6.1194
36.962	110.00	94.4077	6.1194
36.970	110.00	94.4077	6.1194
36.978	110.00	94.4076	6.1194
36.987	110.00	94.4075	6.1194
36.995	110.00	94.4076	6.1194
37.003	110.00	94.4076	6.1194
37.012	110.00	94.4075	6.1194
37.020	110.00	94.4075	6.1194
37.028	110.00	94.4077	6.1194
37.037	110.00	94.4078	6.1194
37.045	110.00	94.4077	6.1194
37.053	110.00	94.4075	6.1194
37.062	110.00	94.4074	6.1194
37.070	110.00	94.4075	6.1194
37.078	110.00	94.4076	6.1194
37.087	110.00	94.4077	6.1194
37.095	110.00	94.4077	6.1194
37.103	110.00	94.4077	6.1194
37.112	110.00	94.4077	6.1194
37.120	110.00	94.4077	6.1194
37.128	110.00	94.4077	6.1194
37.137	110.00	94.4078	6.1194
37.145	110.00	94.4078	6.1194
37.153	110.00	94.4077	6.1194
37.162	110.00	94.4078	6.1194
37.170	110.00	94.4079	6.1194
37.178	110.00	94.4081	6.1194
37.187	110.00	94.4081	6.1194
37.195	110.00	94.4080	6.1194
37.203	110.00	94.4079	6.1194
37.212	110.00	94.4078	6.1194
37.220	110.00	94.4078	6.1194
37.228	110.00	94.4078	6.1194
37.237	110.00	94.4078	6.1194
37.245	110.00	94.4077	6.1194
37.253	110.00	94.4077	6.1194
37.262	110.00	94.4078	6.1194
37.270	110.00	94.4078	6.1194
37.278	110.00	94.4077	6.1194
37.287	110.00	94.4077	6.1194
37.295	110.00	94.4077	6.1194
37.303	110.00	94.4079	6.1194
37.312	110.00	94.4080	6.1194
37.320	110.00	94.4081	6.1194
37.328	110.00	94.4082	6.1194
37.337	110.00	94.4082	6.1194
37.345	110.00	94.4081	6.1194
37.353	110.00	94.4081	6.1194
37.362	110.00	94.4080	6.1194
37.370	110.00	94.4080	6.1194
37.378	110.00	94.4081	6.1194
37.387	110.00	94.4082	6.1194
37.395	110.00	94.4081	6.1194
37.403	110.00	94.4081	6.1194
37.412	110.00	94.4081	6.1194
37.420	110.00	94.4082	6.1194
37.428	110.00	94.4081	6.1194
37.437	110.00	94.4080	6.1194
37.445	110.00	94.4080	6.1194
37.453	110.00	94.4080	6.1194
37.462	110.00	94.4079	6.1194
37.470	110.00	94.4080	6.1194
37.478	110.00	94.4079	6.1194
37.487	110.00	94.4079	6.1194
37.495	110.00	94.4079	6.1194
37.503	110.00	94.4079	6.1194
37.512	110.00	94.4080	6.1194
37.520	110.00	94.4081	6.1194
37.528	110.00	94.4081	6.1194
37.537	110.00	94.4083	6.1194
37.545	110.00	94.4082	6.1194
37.553	110.00	94.4081	6.1194

[step]
Ramp 100.00 °C/min to 950.00 °C
Time	Temperature	Weight	Weight
min	°C	%	mg
37.562	110.00	94.4080	6.1194
37.570	110.00	94.4079	6.1194
37.578	110.00	94.4078	6.1194
37.587	110.00	94.4078	6.1194
37.595	110.01	94.4080	6.1194
37.603	110.01	94.4084	6.1194
37.612	110.03	94.4091	6.1195
37.620	110.05	94.4100	6.1195
37.628	110.08	94.4110	6.1196
37.637	110.12	94.4124	6.1197
37.645	110.17	94.4139	6.1198
37.653	110.23	94.4155	6.1199
37.662	110.31	94.4173	6.1200
37.670	110.40	94.4193	6.1201
37.678	110.51	94.4213	6.1203
37.687	110.63	94.4232	6.1204
37.695	110.78	94.4252	6.1205
37.703	110.94	94.4274	6.1206
37.712	111.12	94.4295	6.1208
37.720	111.32	94.4316	6.1209
37.728	111.53	94.4336	6.1211
37.737	111.77	94.4355	6.1212
37.745	112.03	94.4373	6.1213
37.753	112.30	94.4392	6.1214
37.762	112.59	94.4410	6.1215
37.770	112.90	94.4428	6.1216
37.778	113.23	94.4443	6.1217
37.787	113.58	94.4458	6.1218
37.795	113.94	94.4474	6.1219
37.803	114.32	94.4489	6.1220
37.812	114.71	94.4503	6.1221
37.820	115.13	94.4514	6.1222
37.828	115.55	94.4524	6.1223
37.837	116.00	94.4534	6.1223
37.845	116.45	94.4544	6.1224
37.853	116.92	94.4553	6.1225
37.862	117.41	94.4562	6.1225
37.870	117.91	94.4569	6.1226
37.878	118.43	94.4576	6.1226
37.887	118.95	94.4584	6.1227
37.895	119.49	94.4594	6.1227
37.903	120.05	94.4601	6.1228
37.912	120.62	94.4605	6.1228
37.920	121.20	94.4609	6.1228
37.928	121.79	94.4611	6.1228
37.937	122.40	94.4614	6.1229
37.945	123.02	94.4617	6.1229
37.953	123.64	94.4619	6.1229
37.962	124.28	94.4621	6.1229
37.970	124.94	94.4622	6.1229
37.978	125.60	94.4623	6.1229
37.987	126.27	94.4623	6.1229
37.995	126.95	94.4623	6.1229
38.003	127.63	94.4621	6.1229
38.012	128.33	94.4620	6.1229
38.020	129.03	94.4617	6.1229
38.028	129.74	94.4615	6.1229
38.037	130.46	94.4612	6.1228
38.045	131.18	94.4608	6.1228
38.053	131.91	94.4603	6.1228
38.062	132.64	94.4598	6.1228
38.070	133.38	94.4593	6.1227
38.078	134.12	94.4588	6.1227
38.087	134.87	94.4582	6.1226
38.095	135.62	94.4576	6.1226
38.103	136.38	94.4571	6.1226
38.112	137.13	94.4565	6.1225
38.120	137.89	94.4558	6.1225
38.128	138.66	94.4551	6.1225
38.137	139.42	94.4545	6.1224
38.145	140.19	94.4538	6.1224
38.153	140.96	94.4532	6.1223
38.162	141.74	94.4526	6.1223
38.170	142.52	94.4520	6.1222
38.178	143.30	94.4515	6.1222
38.187	144.08	94.4511	6.1222
38.195	144.86	94.4506	6.1222
38.203	145.65	94.4502	6.1221
38.212	146.44	94.4497	6.1221
38.220	147.23	94.4491	6.1221
38.228	148.03	94.4486	6.1220
38.237	148.83	94.4481	6.1220
38.245	149.63	94.4477	6.1220
38.253	150.43	94.4475	6.1220
38.262	151.23	94.4469	6.1219
38.270	152.04	94.4464	6.1219
38.278	152.84	94.4457	6.1218
38.287	153.65	94.4449	6.1218
38.295	154.47	94.4442	6.1217
38.303	155.28	94.4436	6.1217
38.312	156.09	94.4430	6.1217
38.320	156.91	94.4426	6.1216
38.328	157.72	94.4420	6.1216
38.337	158.54	94.4413	6.1216
38.345	159.35	94.4408	6.1215
38.353	160.17	94.4402	6.1215
38.362	160.99	94.4394	6.1214
38.370	161.81	94.4388	6.1214
38.378	162.63	94.4382	6.1214
38.387	163.45	94.4376	6.1213
38.395	164.27	94.4371	6.1213
38.403	165.08	94.4366	6.1212
38.412	165.90	94.4359	6.1212
38.420	166.72	94.4351	6.1211
38.428	167.54	94.4345	6.1211
38.437	168.36	94.4340	6.1211
38.445	169.18	94.4332	6.1210
38.453	170.01	94.4326	6.1210
38.462	170.83	94.4323	6.1210
38.470	171.65	94.4318	6.1209
38.478	172.47	94.4314	6.1209
38.487	173.30	94.4307	6.1209
38.495	174.12	94.4301	6.1208
38.503	174.95	94.4295	6.1208
38.512	175.77	94.4289	6.1207
38.520	176.60	94.4282	6.1207
38.528	177.43	94.4277	6.1207
38.537	178.26	94.4273	6.1206
38.545	179.08	94.4267	6.1206
38.553	179.91	94.4260	6.1206
38.562	180.74	94.4255	6.1205
38.570	181.58	94.4248	6.1205
38.578	182.41	94.4242	6.1204
38.587	183.24	94.4236	6.1204
38.595	184.07	94.4229	6.1204
38.603	184.90	94.4221	6.1203
38.612	185.73	94.4214	6.1203
38.620	186.56	94.4209	6.1202
38.628	187.40	94.4204	6.1202
38.637	188.23	94.4196	6.1201
38.645	189.06	94.4190	6.1201
38.653	189.89	94.4183	6.1201
38.662	190.72	94.4176	6.1200
38.670	191.55	94.4169	6.1200
38.678	192.38	94.4161	6.1199
38.687	193.21	94.4154	6.1199
38.695	194.04	94.4148	6.1198
38.703	194.86	94.4140	6.1198
38.712	195.69	94.4133	6.1197
38.720	196.52	94.4126	6.1197
38.728	197.35	94.4118	6.1196
38.737	198.18	94.4108	6.1196
38.745	199.01	94.4101	6.1195
38.753	199.84	94.4096	6.1195
38.762	200.67	94.4089	6.1195
38.770	201.50	94.4081	6.1194
38.778	202.33	94.4072	6.1193
38.787	203.16	94.4064	6.1193
38.795	204.00	94.4056	6.1192
38.803	204.83	94.4047	6.1192
38.812	205.66	94.4039	6.1191
38.820	206.50	94.4031	6.1191
38.828	207.33	94.4021	6.1190
38.837	208.17	94.4011	6.1190
38.845	209.00	94.4001	6.1189
38.853	209.83	94.3992	6.1188
38.862	210.67	94.3983	6.1188
38.870	211.50	94.3974	6.1187
38.878	212.34	94.3962	6.1186
38.887	213.17	94.3950	6.1186
38.895	214.01	94.3938	6.1185
38.903	214.84	94.3924	6.1184
38.912	215.67	94.3913	6.1183
38.920	216.50	94.3902	6.1182
38.928	217.34	94.3890	6.1182
38.937	218.17	94.3877	6.1181
38.945	219.00	94.3862	6.1180
38.953	219.83	94.3847	6.1179
38.962	220.66	94.3832	6.1178
38.970	221.49	94.3816	6.1177
38.978	222.32	94.3799	6.1176
38.987	223.15	94.3784	6.1175
38.995	223.98	94.3768	6.1174
39.003	224.81	94.3752	6.1173
39.012	225.65	94.3736	6.1172
39.020	226.48	94.3716	6.1170
39.028	227.31	94.3695	6.1169
39.037	228.14	94.3674	6.1168
39.045	228.97	94.3653	6.1166
39.053	229.81	94.3632	6.1165
39.062	230.64	94.3608	6.1163
39.070	231.48	94.3583	6.1162
39.078	232.31	94.3561	6.1160
39.087	233.14	94.3535	6.1159
39.095	233.98	94.3508	6.1157
39.103	234.81	94.3482	6.1155
39.112	235.65	94.3455	6.1153
39.120	236.48	94.3427	6.1152
39.128	237.32	94.3399	6.1150
39.137	238.15	94.3369	6.1148
39.145	238.99	94.3338	6.1146
39.153	239.82	94.3305	6.1144
39.162	240.65	94.3269	6.1141
39.170	241.49	94.3233	6.1139
39.178	242.32	94.3196	6.1137
39.187	243.15	94.3158	6.1134
39.195	243.98	94.3118	6.1132
39.203	244.81	94.3078	6.1129
39.212	245.65	94.3037	6.1126
39.220	246.48	94.2992	6.1123
39.228	247.31	94.2947	6.1120
39.237	248.14	94.2900	6.1117
39.245	248.97	94.2852	6.1114
39.253	249.80	94.2803	6.1111
39.262	250.63	94.2753	6.1108
39.270	251.46	94.2700	6.1105
39.278	252.30	94.2650	6.1101
39.287	253.13	94.2595	6.1098
39.295	253.96	94.2537	6.1094
39.303	254.79	94.2476	6.1090
39.312	255.63	94.2413	6.1086
39.320	256.46	94.2348	6.1082
39.328	257.30	94.2283	6.1077
39.337	258.13	94.2217	6.1073
39.345	258.96	94.2147	6.1069
39.353	259.80	94.2076	6.1064
39.362	260.63	94.2005	6.1059
39.370	261.47	94.1929	6.1055
39.378	262.30	94.1851	6.1049
39.387	263.14	94.1769	6.1044
39.395	263.97	94.1686	6.1039
39.403	264.81	94.1599	6.1033
39.412	265.64	94.1512	6.1028
39.420	266.47	94.1424	6.1022
39.428	267.31	94.1332	6.1016
39.437	268.14	94.1223	6.1009
39.445	268.97	94.1114	6.1002
39.453	269.80	94.0992	6.0994
39.462	270.63	94.0862	6.0985
39.470	271.46	94.0743	6.0978
39.478	272.30	94.0621	6.0970
39.487	273.13	94.0483	6.0961
39.495	273.96	94.0342	6.0952
39.503	274.79	94.0202	6.0943
39.512	275.62	94.0018	6.0931
39.520	276.45	93.9825	6.0918
39.528	277.28	93.9634	6.0906
39.537	278.11	93.9416	6.0892
39.545	278.94	93.9168	6.0876
39.553	279.78	93.8919	6.0859
39.562	280.61	93.8682	6.0844
39.570	281.44	93.8423	6.0827
39.578	282.28	93.8160	6.0810
39.587	283.11	93.7865	6.0791
39.595	283.95	93.7560	6.0771
39.603	284.78	93.7224	6.0750
39.612	285.62	93.6859	6.0726
39.620	286.45	93.6524	6.0704
39.628	287.29	93.6160	6.0681
39.637	288.12	93.5771	6.0655
39.645	288.95	93.5357	6.0629
39.653	289.79	93.4901	6.0599
39.662	290.62	93.4465	6.0571
39.670	291.46	93.4094	6.0547
39.678	292.29	93.3659	6.0518
39.687	293.12	93.3172	6.0487
39.695	293.95	93.2748	6.0459
39.703	294.78	93.2269	6.0428
39.712	295.62	93.1768	6.0396
39.720	296.45	93.1274	6.0364
39.728	297.28	93.0777	6.0332
39.737	298.11	93.0290	6.0300
39.745	298.94	92.9758	6.0266
39.753	299.77	92.9241	6.0232
39.762	300.60	92.8703	6.0197
39.770	301.43	92.8160	6.0162
39.778	302.26	92.7588	6.0125
39.787	303.10	92.7080	6.0092
39.795	303.93	92.6438	6.0050
39.803	304.76	92.5736	6.0005
39.812	305.59	92.5116	5.9965
39.820	306.43	92.4409	5.9919
39.828	307.26	92.3736	5.9875
39.837	308.10	92.3087	5.9833
39.845	308.93	92.2435	5.9791
39.853	309.77	92.1721	5.9745
39.862	310.60	92.0941	5.9694
39.870	311.44	92.0123	5.9641
39.878	312.27	91.9305	5.9588
39.887	313.10	91.8494	5.9536
39.895	313.94	91.7640	5.9480
39.903	314.77	91.6772	5.9424
39.912	315.60	91.5814	5.9362
39.920	316.44	91.4867	5.9300
39.928	317.27	91.3941	5.9240
39.937	318.10	91.2898	5.9173
39.945	318.93	91.1742	5.9098
39.953	319.76	91.0641	5.9026
39.962	320.59	90.9466	5.8950
39.970	321.42	90.8162	5.8866
39.978	322.26	90.6899	5.8784
39.987	323.09	90.5592	5.8699
39.995	323.92	90.4201	5.8609
40.003	324.75	90.2720	5.8513
40.012	325.58	90.1041	5.8404
40.020	326.41	89.9308	5.8292
40.028	327.24	89.7649	5.8184
40.037	328.07	89.5584	5.8050
40.045	328.90	89.3515	5.7916
40.053	329.74	89.1343	5.7776
40.062	330.57	88.9009	5.7624
40.070	331.40	88.6636	5.7471
40.078	332.24	88.4084	5.7305
40.087	333.07	88.1268	5.7123
40.095	333.91	87.8248	5.6927
40.103	334.74	87.5036	5.6719
40.112	335.58	87.1716	5.6503
40.120	336.41	86.7993	5.6262
40.128	337.24	86.3893	5.5996
40.137	338.08	85.9889	5.5737
40.145	338.91	85.5367	5.5444
40.153	339.75	85.0488	5.5127
40.162	340.58	84.5450	5.4801
40.170	341.41	84.0139	5.4457
40.178	342.24	83.4461	5.4089
40.187	343.07	82.8416	5.3697
40.195	343.91	82.1994	5.3281
40.203	344.74	81.5238	5.2843
40.212	345.57	80.7981	5.2372
40.220	346.40	80.0520	5.1889
40.228	347.23	79.2631	5.1377
40.237	348.06	78.4303	5.0837
40.245	348.89	77.5605	5.0274
40.253	349.72	76.6489	4.9683
40.262	350.55	75.7017	4.9069
40.270	351.38	74.6945	4.8416
40.278	352.21	73.6345	4.7729
40.287	353.05	72.5366	4.7017
40.295	353.88	71.4046	4.6283
40.303	354.71	70.2225	4.5517
40.312	355.54	68.9894	4.4718
40.320	356.38	67.7207	4.3896
40.328	357.21	66.3954	4.3037
40.337	358.05	65.0199	4.2145
40.345	358.88	63.5982	4.1223
40.353	359.72	62.1413	4.0279
40.362	360.55	60.6352	3.9303
40.370	361.38	59.0741	3.8291
40.378	362.22	57.4794	3.7257
40.387	363.05	55.8537	3.6204
40.395	363.89	54.1889	3.5124
40.403	364.72	52.4778	3.4015
40.412	365.55	50.7181	3.2875
40.420	366.38	48.9364	3.1720
40.428	367.21	47.1179	3.0541
40.437	368.05	45.2612	2.9338
40.445	368.88	43.3812	2.8119
40.453	369.71	41.4838	2.6889
40.462	370.54	39.5545	2.5639
40.470	371.37	37.6031	2.4374
40.478	372.20	35.6429	2.3103
40.487	373.03	33.6745	2.1827
40.495	373.86	31.7196	2.0560
40.503	374.70	29.7663	1.9294
40.512	375.53	27.8192	1.8032
40.520	376.36	25.9022	1.6789
40.528	377.19	24.0291	1.5575
40.537	378.03	22.2014	1.4391
40.545	378.86	20.4661	1.3266
40.553	379.69	18.7972	1.2184
40.562	380.53	17.2215	1.1163
40.570	381.36	15.7789	1.0228
40.578	382.19	14.4808	0.9386
40.587	383.03	13.3111	0.8628
40.595	383.86	12.2893	0.7966
40.603	384.70	11.4587	0.7427
40.612	385.53	10.7638	0.6977
40.620	386.37	10.2195	0.6624
40.628	387.20	9.8096	0.6358
40.637	388.04	9.5069	0.6162
40.645	388.87	9.2853	0.6019
40.653	389.71	9.1229	0.5913
40.662	390.54	8.9976	0.5832
40.670	391.37	8.8772	0.5754
40.678	392.20	8.7860	0.5695
40.687	393.04	8.7142	0.5648
40.695	393.87	8.6483	0.5606
40.703	394.70	8.5877	0.5566
40.712	395.53	8.5275	0.5527
40.720	396.36	8.4753	0.5494
40.728	397.18	8.4272	0.5462
40.737	398.01	8.3794	0.5431
40.745	398.84	8.3334	0.5402
40.753	399.67	8.2988	0.5379
40.762	400.50	8.2754	0.5364
40.770	401.33	8.2452	0.5344
40.778	402.15	8.2152	0.5325
40.787	402.98	8.1830	0.5304
40.795	403.81	8.1403	0.5276
40.803	404.64	8.0955	0.5247
40.812	405.47	8.0594	0.5224
40.820	406.30	8.0325	0.5207
40.828	407.13	8.0049	0.5189
40.837	407.97	7.9777	0.5171
40.845	408.80	7.9530	0.5155
40.853	409.63	7.9289	0.5139
40.862	410.46	7.9035	0.5123
40.870	411.29	7.8781	0.5106
40.878	412.12	7.8537	0.5091
40.887	412.95	7.8300	0.5075
40.895	413.78	7.8091	0.5062
40.903	414.61	7.7857	0.5047
40.912	415.44	7.7622	0.5031
40.920	416.27	7.7402	0.5017
40.928	417.10	7.7175	0.5002
40.937	417.93	7.6937	0.4987
40.945	418.76	7.6721	0.4973
40.953	419.59	7.6552	0.4962
40.962	420.42	7.6339	0.4948
40.970	421.25	7.6139	0.4935
40.978	422.08	7.5871	0.4918
40.987	422.91	7.5619	0.4902
40.995	423.75	7.5375	0.4886
41.003	424.58	7.5160	0.4872
41.012	425.41	7.4990	0.4861
41.020	426.24	7.4778	0.4847
41.028	427.08	7.4545	0.4832
41.037	427.91	7.4320	0.4817
41.045	428.74	7.4084	0.4802
41.053	429.58	7.3836	0.4786
41.062	430.41	7.3612	0.4771
41.070	431.24	7.3418	0.4759
41.078	432.08	7.3187	0.4744
41.087	432.91	7.2983	0.4731
41.095	433.74	7.2746	0.4715
41.103	434.58	7.2526	0.4701
41.112	435.41	7.2287	0.4686
41.120	436.24	7.1976	0.4665
41.128	437.07	7.1749	0.4651
41.137	437.90	7.1517	0.4636
41.145	438.73	7.1313	0.4622
41.153	439.56	7.1080	0.4607
41.162	440.39	7.0829	0.4591
41.170	441.22	7.0633	0.4578
41.178	442.06	7.0433	0.4565
41.187	442.89	7.0187	0.4549
41.195	443.72	6.9972	0.4535
41.203	444.55	6.9782	0.4523
41.212	445.38	6.9544	0.4508
41.220	446.21	6.9304	0.4492
41.228	447.05	6.9041	0.4475
41.237	447.88	6.8787	0.4459
41.245	448.71	6.8555	0.4444
41.253	449.55	6.8285	0.4426
41.262	450.38	6.8028	0.4409
41.270	451.21	6.7803	0.4395
41.278	452.05	6.7572	0.4380
41.287	452.88	6.7354	0.4366
41.295	453.71	6.7147	0.4352
41.303	454.55	6.6883	0.4335
41.312	455.38	6.6592	0.4316
41.320	456.21	6.6328	0.4299
41.328	457.04	6.6023	0.4280
41.337	457.88	6.5745	0.4262
41.345	458.71	6.5486	0.4245
41.353	459.54	6.5220	0.4227
41.362	460.37	6.4978	0.4212
41.370	461.20	6.4756	0.4197
41.378	462.03	6.4518	0.4182
41.387	462.86	6.4265	0.4166
41.395	463.69	6.4006	0.4149
41.403	464.52	6.3722	0.4130
41.412	465.35	6.3471	0.4114
41.420	466.19	6.3194	0.4096
41.428	467.02	6.2886	0.4076
41.437	467.85	6.2603	0.4058
41.445	468.68	6.2344	0.4041
41.453	469.52	6.2109	0.4026
41.462	470.35	6.1821	0.4007
41.470	471.18	6.1542	0.3989
41.478	472.02	6.1240	0.3970
41.487	472.85	6.0923	0.3949
41.495	473.68	6.0610	0.3929
41.503	474.52	6.0325	0.3910
41.512	475.35	6.0031	0.3891
41.520	476.18	5.9738	0.3872
41.528	477.01	5.9434	0.3852
41.537	477.85	5.9118	0.3832
41.545	478.68	5.8807	0.3812
41.553	479.51	5.8491	0.3791
41.562	480.34	5.8181	0.3771
41.570	481.17	5.7878	0.3752
41.578	482.00	5.7589	0.3733
41.587	482.83	5.7265	0.3712
41.595	483.66	5.6941	0.3691
41.603	484.50	5.6555	0.3666
41.612	485.33	5.6236	0.3645
41.620	486.16	5.5915	0.3624
41.628	486.99	5.5572	0.3602
41.637	487.82	5.5256	0.3582
41.645	488.66	5.4904	0.3559
41.653	489.49	5.4485	0.3532
41.662	490.32	5.4113	0.3508
41.670	491.16	5.3744	0.3484
41.678	491.99	5.3400	0.3461
41.687	492.82	5.3085	0.3441
41.695	493.66	5.2665	0.3414
41.703	494.49	5.2225	0.3385
41.712	495.32	5.1846	0.3361
41.720	496.15	5.1476	0.3337
41.728	496.99	5.1089	0.3312
41.737	497.82	5.0683	0.3285
41.745	498.65	5.0262	0.3258
41.753	499.48	4.9881	0.3233
41.762	500.31	4.9394	0.3202
41.770	501.14	4.9016	0.3177
41.778	501.98	4.8706	0.3157
41.787	502.81	4.8128	0.3120
41.795	503.64	4.7645	0.3088
41.803	504.47	4.7260	0.3063
41.812	505.30	4.6741	0.3030
41.820	506.13	4.6250	0.2998
41.828	506.96	4.5835	0.2971
41.837	507.80	4.5394	0.2942
41.845	508.63	4.4907	0.2911
41.853	509.46	4.4356	0.2875
41.862	510.30	4.3814	0.2840
41.870	511.13	4.3222	0.2802
41.878	511.96	4.2655	0.2765
41.887	512.80	4.2176	0.2734
41.895	513.63	4.1736	0.2705
41.903	514.46	4.1177	0.2669
41.912	515.30	4.0630	0.2634
41.920	516.13	3.9953	0.2590
41.928	516.96	3.9286	0.2546
41.937	517.79	3.8651	0.2505
41.945	518.63	3.8060	0.2467
41.953	519.46	3.7464	0.2428
41.962	520.29	3.6862	0.2389
41.970	521.12	3.6220	0.2348
41.978	521.95	3.5506	0.2301
41.987	522.78	3.4852	0.2259
41.995	523.61	3.4144	0.2213
42.003	524.44	3.3392	0.2164
42.012	525.28	3.2694	0.2119
42.020	526.11	3.1952	0.2071
42.028	526.94	3.1244	0.2025
42.037	527.77	3.0555	0.1981
42.045	528.61	2.9701	0.1925
42.053	529.44	2.8819	0.1868
42.062	530.27	2.8013	0.1816
42.070	531.11	2.7224	0.1765
42.078	531.94	2.6319	0.1706
42.087	532.77	2.5434	0.1649
42.095	533.61	2.4614	0.1595
42.103	534.44	2.3704	0.1536
42.112	535.27	2.2605	0.1465
42.120	536.11	2.1087	0.1367
42.128	536.94	1.9878	0.1288
42.137	537.77	1.8666	0.1210
42.145	538.60	1.7326	0.1123
42.153	539.43	1.6203	0.1050
42.162	540.27	1.5209	0.0986
42.170	541.10	1.4108	0.0914
42.178	541.93	1.2900	0.0836
42.187	542.76	1.2053	0.0781
42.195	543.59	1.1474	0.0744
42.203	544.43	1.0944	0.0709
42.212	545.26	1.0501	0.0681
42.220	546.09	1.0095	0.0654
42.228	546.92	0.9712	0.0629
42.237	547.75	0.9332	0.0605
42.245	548.58	0.8964	0.0581
42.253	549.41	0.8580	0.0556
42.262	550.24	0.8198	0.0531
42.270	551.07	0.7836	0.0508
42.278	551.90	0.7561	0.0490
42.287	552.73	0.7236	0.0469
42.295	553.56	0.6893	0.0447
42.303	554.39	0.6617	0.0429
42.312	555.22	0.6323	0.0410
42.320	556.05	0.6069	0.0393
42.328	556.88	0.5810	0.0377
42.337	557.71	0.5585	0.0362
42.345	558.55	0.5360	0.0347
42.353	559.38	0.5176	0.0335
42.362	560.21	0.4958	0.0321
42.370	561.04	0.4761	0.0309
42.378	561.88	0.4603	0.0298
42.387	562.71	0.4481	0.0290
42.395	563.54	0.4358	0.0282
42.403	564.37	0.4251	0.0276
42.412	565.20	0.4153	0.0269
42.420	566.03	0.4050	0.0263
42.428	566.86	0.3976	0.0258
42.437	567.70	0.3911	0.0254
42.445	568.52	0.3847	0.0249
42.453	569.35	0.3783	0.0245
42.462	570.18	0.3718	0.0241
42.470	571.01	0.3655	0.0237
42.478	571.84	0.3592	0.0233
42.487	572.67	0.3526	0.0229
42.495	573.50	0.3463	0.0224
42.503	574.33	0.3400	0.0220
42.512	575.16	0.3341	0.0217
42.520	575.99	0.3285	0.0213
42.528	576.83	0.3235	0.0210
42.537	577.66	0.3177	0.0206
42.545	578.49	0.3121	0.0202
42.553	579.32	0.3072	0.0199
42.562	580.15	0.3024	0.0196
42.570	580.99	0.2981	0.0193
42.578	581.82	0.2940	0.0191
42.587	582.65	0.2896	0.0188
42.595	583.48	0.2852	0.0185
42.603	584.31	0.2812	0.0182
42.612	585.15	0.2774	0.0180
42.620	585.98	0.2739	0.0178
42.628	586.81	0.2704	0.0175
42.637	587.64	0.2670	0.0173
42.645	588.47	0.2637	0.0171
42.653	589.30	0.2610	0.0169
42.662	590.13	0.2579	0.0167
42.670	590.96	0.2548	0.0165
42.678	591.79	0.2519	0.0163
42.687	592.62	0.2491	0.0161
42.695	593.45	0.2464	0.0160
42.703	594.28	0.2441	0.0158
42.712	595.11	0.2419	0.0157
42.720	595.94	0.2400	0.0156
42.728	596.77	0.2378	0.0154
42.737	597.61	0.2355	0.0153
42.745	598.44	0.2335	0.0151
42.753	599.27	0.2318	0.0150
42.762	600.10	0.2300	0.0149
42.770	600.94	0.2283	0.0148
42.778	601.77	0.2264	0.0147
42.787	602.60	0.2249	0.0146
42.795	603.43	0.2240	0.0145
42.803	604.26	0.2232	0.0145
42.812	605.09	0.2219	0.0144
42.820	605.92	0.2202	0.0143
42.828	606.75	0.2187	0.0142
42.837	607.58	0.2176	0.0141
42.845	608.41	0.2166	0.0140
42.853	609.24	0.2154	0.0140
42.862	610.07	0.2141	0.0139
42.870	610.90	0.2128	0.0138
42.878	611.73	0.2117	0.0137
42.887	612.57	0.2109	0.0137
42.895	613.40	0.2100	0.0136
42.903	614.23	0.2090	0.0135
42.912	615.06	0.2079	0.0135
42.920	615.89	0.2068	0.0134
42.928	616.72	0.2059	0.0133
42.937	617.56	0.2052	0.0133
42.945	618.39	0.2047	0.0133
42.953	619.22	0.2042	0.0132
42.962	620.05	0.2036	0.0132
42.970	620.88	0.2029	0.0132
42.978	621.72	0.2024	0.0131
42.987	622.55	0.2017	0.0131
42.995	623.38	0.2012	0.0130
43.003	624.21	0.2010	0.0130
43.012	625.04	0.2003	0.0130
43.020	625.87	0.1994	0.0129
43.028	626.70	0.1987	0.0129
43.037	627.53	0.1978	0.0128
43.045	628.36	0.1969	0.0128
43.053	629.19	0.1961	0.0127
43.062	630.02	0.1954	0.0127
43.070	630.85	0.1948	0.0126
43.078	631.68	0.1942	0.0126
43.087	632.51	0.1935	0.0125
43.095	633.35	0.1929	0.0125
43.103	634.18	0.1926	0.0125
43.112	635.01	0.1923	0.0125
43.120	635.84	0.1921	0.0125
43.128	636.68	0.1915	0.0124
43.137	637.51	0.1911	0.0124
43.145	638.34	0.1908	0.0124
43.153	639.17	0.1904	0.0123
43.162	640.01	0.1899	0.0123
43.170	640.84	0.1895	0.0123
43.178	641.67	0.1891	0.0123
43.187	642.50	0.1887	0.0122
43.195	643.33	0.1882	0.0122
43.203	644.16	0.1878	0.0122
43.212	644.99	0.1877	0.0122
43.220	645.82	0.1873	0.0121
43.228	646.65	0.1869	0.0121
43.237	647.48	0.1866	0.0121
43.245	648.31	0.1862	0.0121
43.253	649.14	0.1858	0.0120
43.262	649.97	0.1853	0.0120
43.270	650.81	0.1852	0.0120
43.278	651.64	0.1859	0.0121
43.287	652.47	0.1855	0.0120
43.295	653.30	0.1847	0.0120
43.303	654.13	0.1842	0.0119
43.312	654.97	0.1842	0.0119
43.320	655.80	0.1841	0.0119
43.328	656.63	0.1845	0.0120
43.337	657.46	0.1843	0.0119
43.345	658.29	0.1838	0.0119
43.353	659.13	0.1837	0.0119
43.362	659.96	0.1833	0.0119
43.370	660.79	0.1833	0.0119
43.378	661.62	0.1831	0.0119
43.387	662.45	0.1826	0.0118
43.395	663.28	0.1826	0.0118
43.403	664.11	0.1823	0.0118
43.412	664.94	0.1825	0.0118
43.420	665.77	0.1825	0.0118
43.428	666.60	0.1824	0.0118
43.437	667.43	0.1826	0.0118
43.445	668.26	0.1826	0.0118
43.453	669.09	0.1824	0.0118
43.462	669.92	0.1824	0.0118
43.470	670.75	0.1824	0.0118
43.478	671.58	0.1826	0.0118
43.487	672.42	0.1828	0.0119
43.495	673.25	0.1824	0.0118
43.503	674.08	0.1824	0.0118
43.512	674.91	0.1825	0.0118
43.520	675.74	0.1824	0.0118
43.528	676.57	0.1823	0.0118
43.537	677.41	0.1823	0.0118
43.545	678.24	0.1821	0.0118
43.553	679.07	0.1821	0.0118
43.562	679.90	0.1823	0.0118
43.570	680.73	0.1822	0.0118
43.578	681.56	0.1823	0.0118
43.587	682.39	0.1825	0.0118
43.595	683.22	0.1822	0.0118
43.603	684.05	0.1822	0.0118
43.612	684.88	0.1825	0.0118
43.620	685.71	0.1826	0.0118
43.628	686.54	0.1827	0.0118
43.637	687.37	0.1826	0.0118
43.645	688.20	0.1827	0.0118
43.653	689.03	0.1827	0.0118
43.662	689.86	0.1828	0.0118
43.670	690.70	0.1829	0.0119
43.678	691.53	0.1826	0.0118
43.687	692.36	0.1827	0.0118
43.695	693.19	0.1830	0.0119
43.703	694.02	0.1835	0.0119
43.712	694.85	0.1836	0.0119
43.720	695.68	0.1834	0.0119
43.728	696.51	0.1835	0.0119
43.737	697.34	0.1837	0.0119
43.745	698.17	0.1840	0.0119
43.753	699.00	0.1840	0.0119
43.762	699.83	0.1840	0.0119
43.770	700.66	0.1838	0.0119
43.778	701.49	0.1843	0.0119
43.787	702.32	0.1846	0.0120
43.795	703.15	0.1846	0.0120
43.803	703.98	0.1844	0.0120
43.812	704.81	0.1848	0.0120
43.820	705.64	0.1852	0.0120
43.828	706.47	0.1856	0.0120
43.837	707.31	0.1862	0.0121
43.845	708.14	0.1864	0.0121
43.853	708.97	0.1859	0.0121
43.862	709.80	0.1859	0.0120
43.870	710.63	0.1860	0.0121
43.878	711.46	0.1861	0.0121
43.887	712.29	0.1862	0.0121
43.895	713.13	0.1866	0.0121
43.903	713.96	0.1876	0.0122
43.912	714.79	0.1884	0.0122
43.920	715.62	0.1883	0.0122
43.928	716.44	0.1881	0.0122
43.937	717.27	0.1879	0.0122
43.945	718.10	0.1879	0.0122
43.953	718.93	0.1879	0.0122
43.962	719.76	0.1877	0.0122
43.970	720.59	0.1879	0.0122
43.978	721.42	0.1882	0.0122
43.987	722.25	0.1885	0.0122
43.995	723.08	0.1890	0.0123
44.003	723.91	0.1898	0.0123
44.012	724.74	0.1908	0.0124
44.020	725.57	0.1906	0.0124
44.028	726.40	0.1907	0.0124
44.037	727.23	0.1916	0.0124
44.045	728.06	0.1921	0.0124
44.053	728.89	0.1919	0.0124
44.062	729.72	0.1919	0.0124
44.070	730.56	0.1921	0.0125
44.078	731.39	0.1926	0.0125
44.087	732.22	0.1930	0.0125
44.095	733.05	0.1934	0.0125
44.103	733.88	0.1937	0.0126
44.112	734.70	0.1937	0.0126
44.120	735.53	0.1942	0.0126
44.128	736.36	0.1948	0.0126
44.137	737.19	0.1948	0.0126
44.145	738.02	0.1947	0.0126
44.153	738.85	0.1948	0.0126
44.162	739.68	0.1950	0.0126
44.170	740.51	0.1953	0.0127
44.178	741.34	0.1955	0.0127
44.187	742.16	0.1958	0.0127
44.195	742.99	0.1962	0.0127
44.203	743.83	0.1964	0.0127
44.212	744.66	0.1967	0.0128
44.220	745.49	0.1973	0.0128
44.228	746.32	0.1976	0.0128
44.237	747.15	0.1973	0.0128
44.245	747.98	0.1974	0.0128
44.253	748.81	0.1976	0.0128
44.262	749.64	0.1980	0.0128
44.270	750.47	0.1983	0.0129
44.278	751.30	0.1984	0.0129
44.287	752.13	0.1981	0.0128
44.295	752.96	0.1983	0.0129
44.303	753.78	0.1994	0.0129
44.312	754.61	0.1999	0.0130
44.320	755.44	0.1998	0.0129
44.328	756.27	0.2007	0.0130
44.337	757.10	0.2016	0.0131
44.345	757.93	0.2019	0.0131
44.353	758.76	0.2020	0.0131
44.362	759.59	0.2023	0.0131
44.370	760.42	0.2025	0.0131
44.378	761.25	0.2026	0.0131
44.387	762.08	0.2030	0.0132
44.395	762.91	0.2032	0.0132
44.403	763.74	0.2034	0.0132
44.412	764.57	0.2031	0.0132
44.420	765.40	0.2034	0.0132
44.428	766.23	0.2037	0.0132
44.437	767.06	0.2036	0.0132
44.445	767.89	0.2034	0.0132
44.453	768.72	0.2035	0.0132
44.462	769.55	0.2040	0.0132
44.470	770.38	0.2042	0.0132
44.478	771.21	0.2043	0.0132
44.487	772.04	0.2045	0.0133
44.495	772.87	0.2049	0.0133
44.503	773.70	0.2050	0.0133
44.512	774.53	0.2051	0.0133
44.520	775.36	0.2055	0.0133
44.528	776.19	0.2056	0.0133
44.537	777.02	0.2055	0.0133
44.545	777.85	0.2057	0.0133
44.553	778.68	0.2059	0.0133
44.562	779.51	0.2063	0.0134
44.570	780.34	0.2066	0.0134
44.578	781.17	0.2064	0.0134
44.587	782.00	0.2065	0.0134
44.595	782.83	0.2065	0.0134
44.603	783.66	0.2067	0.0134
44.612	784.49	0.2070	0.0134
44.620	785.32	0.2076	0.0135
44.628	786.15	0.2079	0.0135
44.637	786.98	0.2079	0.0135
44.645	787.81	0.2077	0.0135
44.653	788.64	0.2076	0.0135
44.662	789.47	0.2080	0.0135
44.670	790.30	0.2084	0.0135
44.678	791.13	0.2083	0.0135
44.687	791.96	0.2085	0.0135
44.695	792.79	0.2087	0.0135
44.703	793.62	0.2085	0.0135
44.712	794.45	0.2084	0.0135
44.720	795.28	0.2085	0.0135
44.728	796.11	0.2090	0.0135
44.737	796.94	0.2088	0.0135
44.745	797.77	0.2088	0.0135
44.753	798.60	0.2091	0.0136
44.762	799.43	0.2093	0.0136
44.770	800.26	0.2096	0.0136
44.778	801.09	0.2098	0.0136
44.787	801.92	0.2100	0.0136
44.795	802.75	0.2105	0.0136
44.803	803.58	0.2109	0.0137
44.812	804.41	0.2111	0.0137
44.820	805.24	0.2108	0.0137
44.828	806.07	0.2109	0.0137
44.837	806.90	0.2111	0.0137
44.845	807.73	0.2112	0.0137
44.853	808.56	0.2111	0.0137
44.862	809.39	0.2112	0.0137
44.870	810.22	0.2115	0.0137
44.878	811.05	0.2119	0.0137
44.887	811.88	0.2121	0.0137
44.895	812.71	0.2124	0.0138
44.903	813.54	0.2122	0.0138
44.912	814.37	0.2122	0.0138
44.920	815.20	0.2123	0.0138
44.928	816.03	0.2127	0.0138
44.937	816.86	0.2128	0.0138
44.945	817.69	0.2123	0.0138
44.953	818.52	0.2123	0.0138
44.962	819.35	0.2128	0.0138
44.970	820.18	0.2134	0.0138
44.978	821.01	0.2138	0.0139
44.987	821.84	0.2147	0.0139
44.995	822.66	0.2145	0.0139
45.003	823.49	0.2141	0.0139
45.012	824.32	0.2140	0.0139
45.020	825.15	0.2139	0.0139
45.028	825.98	0.2139	0.0139
45.037	826.81	0.2144	0.0139
45.045	827.64	0.2150	0.0139
45.053	828.47	0.2151	0.0139
45.062	829.30	0.2152	0.0140
45.070	830.13	0.2161	0.0140
45.078	830.96	0.2170	0.0141
45.087	831.80	0.2173	0.0141
45.095	832.63	0.2166	0.0140
45.103	833.45	0.2160	0.0140
45.112	834.28	0.2163	0.0140
45.120	835.11	0.2169	0.0141
45.128	835.94	0.2171	0.0141
45.137	836.77	0.2182	0.0141
45.145	837.60	0.2183	0.0142
45.153	838.43	0.2179	0.0141
45.162	839.26	0.2185	0.0142
45.170	840.09	0.2188	0.0142
45.178	840.92	0.2185	0.0142
45.187	841.75	0.2188	0.0142
45.195	842.58	0.2190	0.0142
45.203	843.41	0.2190	0.0142
45.212	844.24	0.2197	0.0142
45.220	845.07	0.2199	0.0143
45.228	845.90	0.2200	0.0143
45.237	846.73	0.2202	0.0143
45.245	847.56	0.2202	0.0143
45.253	848.39	0.2206	0.0143
45.262	849.22	0.2201	0.0143
45.270	850.05	0.2197	0.0142
45.278	850.88	0.2202	0.0143
45.287	851.71	0.2206	0.0143
45.295	852.54	0.2205	0.0143
45.303	853.36	0.2208	0.0143
45.312	854.19	0.2212	0.0143
45.320	855.02	0.2213	0.0143
45.328	855.85	0.2216	0.0144
45.337	856.68	0.2216	0.0144
45.345	857.51	0.2221	0.0144
45.353	858.34	0.2230	0.0145
45.362	859.17	0.2236	0.0145
45.370	860.00	0.2235	0.0145
45.378	860.83	0.2228	0.0144
45.387	861.66	0.2225	0.0144
45.395	862.49	0.2222	0.0144
45.403	863.32	0.2220	0.0144
45.412	864.15	0.2218	0.0144
45.420	864.98	0.2220	0.0144
45.428	865.81	0.2220	0.0144
45.437	866.64	0.2220	0.0144
45.445	867.47	0.2222	0.0144
45.453	868.30	0.2227	0.0144
45.462	869.12	0.2238	0.0145
45.470	869.95	0.2238	0.0145
45.478	870.78	0.2234	0.0145
45.487	871.61	0.2233	0.0145
45.495	872.44	0.2240	0.0145
45.503	873.27	0.2245	0.0146
45.512	874.10	0.2241	0.0145
45.520	874.93	0.2238	0.0145
45.528	875.76	0.2238	0.0145
45.537	876.59	0.2241	0.0145
45.545	877.42	0.2245	0.0146
45.553	878.25	0.2247	0.0146
45.562	879.08	0.2247	0.0146
45.570	879.91	0.2249	0.0146
45.578	880.74	0.2251	0.0146
45.587	881.57	0.2250	0.0146
45.595	882.40	0.2257	0.0146
45.603	883.23	0.2268	0.0147
45.612	884.06	0.2273	0.0147
45.620	884.89	0.2274	0.0147
45.628	885.71	0.2276	0.0148
45.637	886.54	0.2282	0.0148
45.645	887.37	0.2279	0.0148
45.653	888.20	0.2281	0.0148
45.662	889.03	0.2283	0.0148
45.670	889.86	0.2287	0.0148
45.678	890.69	0.2298	0.0149
45.687	891.52	0.2305	0.0149
45.695	892.35	0.2299	0.0149
45.703	893.18	0.2286	0.0148
45.712	894.01	0.2281	0.0148
45.720	894.84	0.2282	0.0148
45.728	895.67	0.2289	0.0148
45.737	896.50	0.2291	0.0149
45.745	897.33	0.2288	0.0148
45.753	898.16	0.2288	0.0148
45.762	898.98	0.2288	0.0148
45.770	899.81	0.2289	0.0148
45.778	900.64	0.2295	0.0149
45.787	901.47	0.2302	0.0149
45.795	902.30	0.2315	0.0150
45.803	903.13	0.2316	0.0150
45.812	903.96	0.2312	0.0150
45.820	904.79	0.2312	0.0150
45.828	905.62	0.2313	0.0150
45.837	906.45	0.2317	0.0150
45.845	907.28	0.2329	0.0151
45.853	908.11	0.2336	0.0151
45.862	908.94	0.2331	0.0151
45.870	909.77	0.2329	0.0151
45.878	910.60	0.2326	0.0151
45.887	911.43	0.2327	0.0151
45.895	912.26	0.2330	0.0151
45.903	913.08	0.2326	0.0151
45.912	913.91	0.2321	0.0150
45.920	914.74	0.2328	0.0151
45.928	915.57	0.2330	0.0151
45.937	916.40	0.2327	0.0151
45.945	917.23	0.2333	0.0151
45.953	918.06	0.2335	0.0151
45.962	918.89	0.2334	0.0151
45.970	919.72	0.2335	0.0151
45.978	920.54	0.2338	0.0152
45.987	921.37	0.2339	0.0152
45.995	922.20	0.2336	0.0151
46.003	923.03	0.2338	0.0152
46.012	923.86	0.2339	0.0152
46.020	924.69	0.2339	0.0152
46.028	925.52	0.2341	0.0152
46.037	926.35	0.2340	0.0152
46.045	927.17	0.2342	0.0152
46.053	928.00	0.2342	0.0152
46.062	928.82	0.2342	0.0152
46.070	929.65	0.2345	0.0152
46.078	930.47	0.2350	0.0152
46.087	931.29	0.2348	0.0152
46.095	932.11	0.2350	0.0152
46.103	932.93	0.2347	0.0152

[step]
Isothermal 10.0 min
Time	Temperature	Weight	Weight
min	°C	%	mg
46.112	933.75	0.2348	0.0152
46.120	934.57	0.2350	0.0152
46.128	935.39	0.2352	0.0152
46.137	936.19	0.2352	0.0152
46.145	936.97	0.2353	0.0153
46.153	937.71	0.2355	0.0153
46.162	938.39	0.2355	0.0153
46.170	939.01	0.2353	0.0153
46.178	939.56	0.2354	0.0153
46.187	940.03	0.2357	0.0153
46.195	940.43	0.2360	0.0153
46.203	940.77	0.2359	0.0153
46.212	941.05	0.2357	0.0153
46.220	941.29	0.2357	0.0153
46.228	941.49	0.2356	0.0153
46.237	941.66	0.2354	0.0153
46.245	941.82	0.2355	0.0153
46.253	941.97	0.2366	0.0153
46.262	942.11	0.2370	0.0154
46.270	942.25	0.2367	0.0153
46.278	942.38	0.2361	0.0153
46.287	942.51	0.2364	0.0153
46.295	942.64	0.2364	0.0153
46.303	942.76	0.2359	0.0153
46.312	942.88	0.2354	0.0153
46.320	942.99	0.2357	0.0153
46.328	943.10	0.2359	0.0153
46.337	943.20	0.2363	0.0153
46.345	943.30	0.2366	0.0153
46.353	943.38	0.2366	0.0153
46.362	943.47	0.2364	0.0153
46.370	943.54	0.2366	0.0153
46.378	943.62	0.2366	0.0153
46.387	943.69	0.2361	0.0153
46.395	943.76	0.2358	0.0153
46.403	943.82	0.2358	0.0153
46.412	943.88	0.2364	0.0153
46.420	943.95	0.2365	0.0153
46.428	944.01	0.2364	0.0153
46.437	944.07	0.2363	0.0153
46.445	944.13	0.2361	0.0153
46.453	944.18	0.2361	0.0153
46.462	944.24	0.2365	0.0153
46.470	944.30	0.2364	0.0153
46.478	944.35	0.2360	0.0153
46.487	944.40	0.2357	0.0153
46.495	944.46	0.2355	0.0153
46.503	944.51	0.2352	0.0152
46.512	944.56	0.2349	0.0152
46.520	944.61	0.2354	0.0153
46.528	944.66	0.2359	0.0153
46.537	944.70	0.2361	0.0153
46.545	944.75	0.2360	0.0153
46.553	944.80	0.2361	0.0153
46.562	944.84	0.2363	0.0153
46.570	944.89	0.2367	0.0153
46.578	944.93	0.2362	0.0153
46.587	944.97	0.2363	0.0153
46.595	945.02	0.2368	0.0153
46.603	945.06	0.2371	0.0154
46.612	945.10	0.2367	0.0153
46.620	945.14	0.2362	0.0153
46.628	945.18	0.2364	0.0153
46.637	945.22	0.2364	0.0153
46.645	945.26	0.2368	0.0153
46.653	945.30	0.2367	0.0153
46.662	945.34	0.2361	0.0153
46.670	945.38	0.2360	0.0153
46.678	945.42	0.2360	0.0153
46.687	945.46	0.2360	0.0153
46.695	945.49	0.2362	0.0153
46.703	945.53	0.2372	0.0154
46.712	945.57	0.2376	0.0154
46.720	945.60	0.2373	0.0154
46.728	945.64	0.2372	0.0154
46.737	945.67	0.2370	0.0154
46.745	945.71	0.2367	0.0153
46.753	945.74	0.2365	0.0153
46.762	945.77	0.2366	0.0153
46.770	945.81	0.2366	0.0153
46.778	945.84	0.2368	0.0153
46.787	945.87	0.2373	0.0154
46.795	945.91	0.2378	0.0154
46.803	945.94	0.2372	0.0154
46.812	945.97	0.2366	0.0153
46.820	946.00	0.2363	0.0153
46.828	946.04	0.2366	0.0153
46.837	946.07	0.2366	0.0153
46.845	946.10	0.2363	0.0153
46.853	946.13	0.2358	0.0153
46.862	946.16	0.2359	0.0153
46.870	946.19	0.2359	0.0153
46.878	946.22	0.2361	0.0153
46.887	946.25	0.2361	0.0153
46.895	946.28	0.2363	0.0153
46.903	946.30	0.2359	0.0153
46.912	946.33	0.2350	0.0152
46.920	946.36	0.2350	0.0152
46.928	946.39	0.2354	0.0153
46.937	946.42	0.2352	0.0152
46.945	946.44	0.2358	0.0153
46.953	946.47	0.2363	0.0153
46.962	946.50	0.2359	0.0153
46.970	946.53	0.2356	0.0153
46.978	946.55	0.2359	0.0153
46.987	946.58	0.2362	0.0153
46.995	946.60	0.2364	0.0153
47.003	946.63	0.2360	0.0153
47.012	946.66	0.2359	0.0153
47.020	946.68	0.2355	0.0153
47.028	946.71	0.2353	0.0153
47.037	946.73	0.2354	0.0153
47.045	946.76	0.2359	0.0153
47.053	946.78	0.2362	0.0153
47.062	946.81	0.2357	0.0153
47.070	946.83	0.2354	0.0153
47.078	946.85	0.2353	0.0153
47.087	946.88	0.2351	0.0152
47.095	946.90	0.2347	0.0152
47.103	946.93	0.2347	0.0152
47.112	946.95	0.2347	0.0152
47.120	946.97	0.2346	0.0152
47.128	947.00	0.2347	0.0152
47.137	947.02	0.2349	0.0152
47.145	947.04	0.2351	0.0152
47.153	947.06	0.2352	0.0152
47.162	947.09	0.2353	0.0153
47.170	947.11	0.2351	0.0152
47.178	947.13	0.2346	0.0152
47.187	947.15	0.2346	0.0152
47.195	947.17	0.2349	0.0152
47.203	947.19	0.2346	0.0152
47.212	947.22	0.2342	0.0152
47.220	947.24	0.2341	0.0152
47.228	947.26	0.2346	0.0152
47.237	947.28	0.2349	0.0152
47.245	947.30	0.2349	0.0152
47.253	947.32	0.2349	0.0152
47.262	947.34	0.2350	0.0152
47.270	947.36	0.2345	0.0152
47.278	947.38	0.2340	0.0152
47.287	947.40	0.2339	0.0152
47.295	947.42	0.2343	0.0152
47.303	947.44	0.2341	0.0152
47.312	947.46	0.2339	0.0152
47.320	947.47	0.2339	0.0152
47.328	947.49	0.2338	0.0152
47.337	947.51	0.2342	0.0152
47.345	947.53	0.2342	0.0152
47.353	947.55	0.2343	0.0152
47.362	947.57	0.2345	0.0152
47.370	947.58	0.2346	0.0152
47.378	947.60	0.2346	0.0152
47.387	947.62	0.2347	0.0152
47.395	947.64	0.2345	0.0152
47.403	947.65	0.2345	0.0152
47.412	947.67	0.2347	0.0152
47.420	947.69	0.2347	0.0152
47.428	947.71	0.2347	0.0152
47.437	947.72	0.2345	0.0152
47.445	947.74	0.2345	0.0152
47.453	947.76	0.2344	0.0152
47.462	947.77	0.2345	0.0152
47.470	947.79	0.2345	0.0152
47.478	947.81	0.2344	0.0152
47.487	947.82	0.2341	0.0152
47.495	947.84	0.2341	0.0152
47.503	947.85	0.2339	0.0152
47.512	947.87	0.2334	0.0151
47.520	947.88	0.2329	0.0151
47.528	947.90	0.2333	0.0151
47.537	947.92	0.2342	0.0152
47.545	947.93	0.2346	0.0152
47.553	947.95	0.2349	0.0152
47.562	947.96	0.2352	0.0152
47.570	947.98	0.2345	0.0152
47.578	947.99	0.2343	0.0152
47.587	948.01	0.2348	0.0152
47.595	948.02	0.2345	0.0152
47.603	948.03	0.2338	0.0152
47.612	948.05	0.2333	0.0151
47.620	948.06	0.2331	0.0151
47.628	948.08	0.2331	0.0151
47.637	948.09	0.2332	0.0151
47.645	948.11	0.2335	0.0151
47.653	948.12	0.2340	0.0152
47.662	948.13	0.2344	0.0152
47.670	948.15	0.2344	0.0152
47.678	948.16	0.2339	0.0152
47.687	948.17	0.2338	0.0152
47.695	948.19	0.2343	0.0152
47.703	948.20	0.2343	0.0152
47.712	948.21	0.2340	0.0152
47.720	948.23	0.2339	0.0152
47.728	948.24	0.2340	0.0152
47.737	948.25	0.2340	0.0152
47.745	948.27	0.2337	0.0151
47.753	948.28	0.2337	0.0151
47.762	948.29	0.2338	0.0152
47.770	948.30	0.2339	0.0152
47.778	948.32	0.2338	0.0152
47.787	948.33	0.2337	0.0151
47.795	948.34	0.2337	0.0152
47.803	948.35	0.2338	0.0152
47.812	948.37	0.2337	0.0151
47.820	948.38	0.2338	0.0152
47.828	948.39	0.2339	0.0152
47.837	948.40	0.2337	0.0151
47.845	948.41	0.2340	0.0152
47.853	948.42	0.2343	0.0152
47.862	948.44	0.2340	0.0152
47.870	948.45	0.2339	0.0152
47.878	948.46	0.2340	0.0152
47.887	948.47	0.2339	0.0152
47.895	948.48	0.2341	0.0152
47.903	948.49	0.2341	0.0152
47.912	948.50	0.2349	0.0152
47.920	948.51	0.2347	0.0152
47.928	948.52	0.2344	0.0152
47.937	948.53	0.2346	0.0152
47.945	948.55	0.2348	0.0152
47.953	948.56	0.2345	0.0152
47.962	948.57	0.2346	0.0152
47.970	948.58	0.2348	0.0152
47.978	948.59	0.2342	0.0152
47.987	948.60	0.2340	0.0152
47.995	948.61	0.2341	0.0152
48.003	948.62	0.2340	0.0152
48.012	948.63	0.2342	0.0152
48.020	948.64	0.2346	0.0152
48.028	948.65	0.2345	0.0152
48.037	948.66	0.2341	0.0152
48.045	948.67	0.2339	0.0152
48.053	948.68	0.2340	0.0152
48.062	948.69	0.2338	0.0152
48.070	948.70	0.2333	0.0151
48.078	948.71	0.2333	0.0151
48.087	948.72	0.2338	0.0152
48.095	948.73	0.2337	0.0152
48.103	948.74	0.2336	0.0151
48.112	948.75	0.2338	0.0152
48.120	948.76	0.2336	0.0151
48.128	948.76	0.2330	0.0151
48.137	948.77	0.2329	0.0151
48.145	948.78	0.2332	0.0151
48.153	948.79	0.2337	0.0151
48.162	948.80	0.2338	0.0152
48.170	948.81	0.2337	0.0151
48.178	948.82	0.2338	0.0152
48.187	948.83	0.2339	0.0152
48.195	948.83	0.2340	0.0152
48.203	948.84	0.2341	0.0152
48.212	948.85	0.2346	0.0152
48.220	948.86	0.2351	0.0152
48.228	948.87	0.2354	0.0153
48.237	948.88	0.2356	0.0153
48.245	948.88	0.2354	0.0153
48.253	948.89	0.2347	0.0152
48.262	948.90	0.2344	0.0152
48.270	948.91	0.2348	0.0152
48.278	948.92	0.2352	0.0152
48.287	948.93	0.2352	0.0152
48.295	948.93	0.2357	0.0153
48.303	948.94	0.2360	0.0153
48.312	948.95	0.2351	0.0152
48.320	948.96	0.2351	0.0152
48.328	948.96	0.2354	0.0153
48.337	948.97	0.2350	0.0152
48.345	948.98	0.2341	0.0152
48.353	948.99	0.2340	0.0152
48.362	948.99	0.2340	0.0152
48.370	949.00	0.2338	0.0152
48.378	949.01	0.2340	0.0152
48.387	949.02	0.2344	0.0152
48.395	949.02	0.2342	0.0152
48.403	949.03	0.2341	0.0152
48.412	949.04	0.2340	0.0152
48.420	949.04	0.2338	0.0152
48.428	949.05	0.2336	0.0151
48.437	949.06	0.2340	0.0152
48.445	949.07	0.2345	0.0152
48.453	949.07	0.2346	0.0152
48.462	949.08	0.2346	0.0152
48.470	949.09	0.2348	0.0152
48.478	949.09	0.2353	0.0153
48.487	949.10	0.2353	0.0152
48.495	949.11	0.2354	0.0153
48.503	949.11	0.2349	0.0152
48.512	949.12	0.2347	0.0152
48.520	949.13	0.2350	0.0152
48.528	949.13	0.2345	0.0152
48.537	949.14	0.2347	0.0152
48.545	949.15	0.2347	0.0152
48.553	949.15	0.2343	0.0152
48.562	949.16	0.2343	0.0152
48.570	949.16	0.2342	0.0152
48.578	949.17	0.2338	0.0152
48.587	949.18	0.2336	0.0151
48.595	949.18	0.2337	0.0152
48.603	949.19	0.2342	0.0152
48.612	949.19	0.2344	0.0152
48.620	949.20	0.2344	0.0152
48.628	949.21	0.2344	0.0152
48.637	949.21	0.2344	0.0152
48.645	949.22	0.2341	0.0152
48.653	949.22	0.2336	0.0151
48.662	949.23	0.2334	0.0151
48.670	949.23	0.2337	0.0152
48.678	949.24	0.2335	0.0151
48.687	949.25	0.2333	0.0151
48.695	949.25	0.2333	0.0151
48.703	949.26	0.2330	0.0151
48.712	949.26	0.2328	0.0151
48.720	949.27	0.2329	0.0151
48.728	949.27	0.2328	0.0151
48.737	949.28	0.2328	0.0151
48.745	949.28	0.2330	0.0151
48.753	949.29	0.2332	0.0151
48.762	949.29	0.2332	0.0151
48.770	949.30	0.2334	0.0151
48.778	949.30	0.2333	0.0151
48.787	949.31	0.2331	0.0151
48.795	949.31	0.2339	0.0152
48.803	949.32	0.2346	0.0152
48.812	949.32	0.2343	0.0152
48.820	949.33	0.2338	0.0152
48.828	949.33	0.2339	0.0152
48.837	949.34	0.2340	0.0152
48.845	949.34	0.2335	0.0151
48.853	949.35	0.2333	0.0151
48.862	949.35	0.2337	0.0151
48.870	949.35	0.2335	0.0151
48.878	949.36	0.2336	0.0151
48.887	949.36	0.2344	0.0152
48.895	949.37	0.2346	0.0152
48.903	949.37	0.2347	0.0152
48.912	949.38	0.2349	0.0152
48.920	949.38	0.2348	0.0152
48.928	949.39	0.2342	0.0152
48.937	949.39	0.2341	0.0152
48.945	949.40	0.2341	0.0152
48.953	949.40	0.2342	0.0152
48.962	949.40	0.2342	0.0152
48.970	949.41	0.2339	0.0152
48.978	949.41	0.2336	0.0151
48.987	949.42	0.2336	0.0151
48.995	949.42	0.2339	0.0152
49.003	949.43	0.2340	0.0152
49.012	949.43	0.2339	0.0152
49.020	949.43	0.2339	0.0152
49.028	949.44	0.2340	0.0152
49.037	949.44	0.2341	0.0152
49.045	949.45	0.2339	0.0152
49.053	949.45	0.2337	0.0151
49.062	949.45	0.2334	0.0151
49.070	949.46	0.2334	0.0151
49.078	949.46	0.2342	0.0152
49.087	949.47	0.2340	0.0152
49.095	949.47	0.2333	0.0151
49.103	949.47	0.2332	0.0151
49.112	949.48	0.2335	0.0151
49.120	949.48	0.2338	0.0152
49.128	949.48	0.2341	0.0152
49.137	949.49	0.2338	0.0152
49.145	949.49	0.2338	0.0152
49.153	949.49	0.2336	0.0151
49.162	949.50	0.2341	0.0152
49.170	949.50	0.2338	0.0152
49.178	949.51	0.2335	0.0151
49.187	949.51	0.2337	0.0151
49.195	949.51	0.2335	0.0151
49.203	949.52	0.2337	0.0152
49.212	949.52	0.2342	0.0152
49.220	949.52	0.2343	0.0152
49.228	949.53	0.2341	0.0152
49.237	949.53	0.2341	0.0152
49.245	949.53	0.2339	0.0152
49.253	949.53	0.2341	0.0152
49.262	949.54	0.2339	0.0152
49.270	949.54	0.2337	0.0151
49.278	949.54	0.2341	0.0152
49.287	949.55	0.2339	0.0152
49.295	949.55	0.2336	0.0151
49.303	949.55	0.2338	0.0152
49.312	949.56	0.2342	0.0152
49.320	949.56	0.2342	0.0152
49.328	949.56	0.2342	0.0152
49.337	949.57	0.2345	0.0152
49.345	949.57	0.2348	0.0152
49.353	949.57	0.2346	0.0152
49.362	949.58	0.2344	0.0152
49.370	949.58	0.2344	0.0152
49.378	949.58	0.2343	0.0152
49.387	949.59	0.2344	0.0152
49.395	949.59	0.2345	0.0152
49.403	949.59	0.2343	0.0152
49.412	949.60	0.2341	0.0152
49.420	949.60	0.2342	0.0152
49.428	949.60	0.2347	0.0152
49.437	949.60	0.2345	0.0152
49.445	949.61	0.2342	0.0152
49.453	949.61	0.2343	0.0152
49.462	949.61	0.2340	0.0152
49.470	949.62	0.2341	0.0152
49.478	949.62	0.2343	0.0152
49.487	949.62	0.2342	0.0152
49.495	949.62	0.2341	0.0152
49.503	949.63	0.2345	0.0152
49.512	949.63	0.2347	0.0152
49.520	949.63	0.2345	0.0152
49.528	949.63	0.2344	0.0152
49.537	949.64	0.2350	0.0152
49.545	949.64	0.2349	0.0152
49.553	949.64	0.2344	0.0152
49.562	949.65	0.2344	0.0152
49.570	949.65	0.2342	0.0152
49.578	949.65	0.2339	0.0152
49.587	949.65	0.2339	0.0152
49.595	949.66	0.2337	0.0151
49.603	949.66	0.2338	0.0152
49.612	949.66	0.2341	0.0152
49.620	949.66	0.2341	0.0152
49.628	949.67	0.2343	0.0152
49.637	949.67	0.2345	0.0152
49.645	949.67	0.2344	0.0152
49.653	949.67	0.2344	0.0152
49.662	949.67	0.2340	0.0152
49.670	949.68	0.2337	0.0151
49.678	949.68	0.2338	0.0152
49.687	949.68	0.2339	0.0152
49.695	949.68	0.2336	0.0151
49.703	949.69	0.2334	0.0151
49.712	949.69	0.2333	0.0151
49.720	949.69	0.2338	0.0152
49.728	949.69	0.2341	0.0152
49.737	949.69	0.2339	0.0152
49.745	949.70	0.2339	0.0152
49.753	949.70	0.2340	0.0152
49.762	949.70	0.2339	0.0152
49.770	949.70	0.2336	0.0151
49.778	949.71	0.2342	0.0152
49.787	949.71	0.2345	0.0152
49.795	949.71	0.2342	0.0152
49.803	949.71	0.2340	0.0152
49.812	949.71	0.2342	0.0152
49.820	949.72	0.2340	0.0152
49.828	949.72	0.2342	0.0152
49.837	949.72	0.2341	0.0152
49.845	949.72	0.2339	0.0152
49.853	949.72	0.2337	0.0151
49.862	949.73	0.2343	0.0152
49.870	949.73	0.2348	0.0152
49.878	949.73	0.2348	0.0152
49.887	949.73	0.2339	0.0152
49.895	949.73	0.2334	0.0151
49.903	949.74	0.2329	0.0151
49.912	949.74	0.2327	0.0151
49.920	949.74	0.2328	0.0151
49.928	949.74	0.2326	0.0151
49.937	949.74	0.2323	0.0151
49.945	949.75	0.2327	0.0151
49.953	949.75	0.2331	0.0151
49.962	949.75	0.2329	0.0151
49.970	949.75	0.2330	0.0151
49.978	949.75	0.2331	0.0151
49.987	949.75	0.2326	0.0151
49.995	949.76	0.2320	0.0150
50.003	949.76	0.2322	0.0151
50.012	949.76	0.2328	0.0151
50.020	949.76	0.2331	0.0151
50.028	949.76	0.2333	0.0151
50.037	949.76	0.2342	0.0152
50.045	949.77	0.2340	0.0152
50.053	949.77	0.2335	0.0151
50.062	949.77	0.2330	0.0151
50.070	949.77	0.2331	0.0151
50.078	949.77	0.2334	0.0151
50.087	949.77	0.2334	0.0151
50.095	949.78	0.2331	0.0151
50.103	949.78	0.2336	0.0151
50.112	949.78	0.2333	0.0151
50.120	949.78	0.2332	0.0151
50.128	949.78	0.2331	0.0151
50.137	949.78	0.2327	0.0151
50.145	949.79	0.2327	0.0151
50.153	949.79	0.2327	0.0151
50.162	949.79	0.2327	0.0151
50.170	949.79	0.2326	0.0151
50.178	949.79	0.2330	0.0151
50.187	949.79	0.2335	0.0151
50.195	949.79	0.2336	0.0151
50.203	949.80	0.2341	0.0152
50.212	949.80	0.2340	0.0152
50.220	949.80	0.2337	0.0151
50.228	949.80	0.2336	0.0151
50.237	949.80	0.2337	0.0152
50.245	949.80	0.2341	0.0152
50.253	949.80	0.2340	0.0152
50.262	949.81	0.2338	0.0152
50.270	949.81	0.2339	0.0152
50.278	949.81	0.2337	0.0151
50.287	949.81	0.2332	0.0151
50.295	949.81	0.2331	0.0151
50.303	949.81	0.2333	0.0151
50.312	949.81	0.2330	0.0151
50.320	949.82	0.2332	0.0151
50.328	949.82	0.2336	0.0151
50.337	949.82	0.2337	0.0151
50.345	949.82	0.2334	0.0151
50.353	949.82	0.2333	0.0151
50.362	949.82	0.2337	0.0151
50.370	949.82	0.2339	0.0152
50.378	949.83	0.2337	0.0151
50.387	949.83	0.2332	0.0151
50.395	949.83	0.2329	0.0151
50.403	949.83	0.2329	0.0151
50.412	949.83	0.2328	0.0151
50.420	949.83	0.2328	0.0151
50.428	949.83	0.2331	0.0151
50.437	949.83	0.2335	0.0151
50.445	949.83	0.2340	0.0152
50.453	949.84	0.2337	0.0151
50.462	949.84	0.2337	0.0151
50.470	949.84	0.2339	0.0152
50.478	949.84	0.2344	0.0152
50.487	949.84	0.2342	0.0152
50.495	949.84	0.2340	0.0152
50.503	949.84	0.2339	0.0152
50.512	949.84	0.2336	0.0151
50.520	949.84	0.2337	0.0152
50.528	949.85	0.2341	0.0152
50.537	949.85	0.2346	0.0152
50.545	949.85	0.2343	0.0152
50.553	949.85	0.2343	0.0152
50.562	949.85	0.2343	0.0152
50.570	949.85	0.2345	0.0152
50.578	949.85	0.2345	0.0152
50.587	949.85	0.2346	0.0152
50.595	949.85	0.2341	0.0152
50.603	949.86	0.2337	0.0152
50.612	949.86	0.2344	0.0152
50.620	949.86	0.2347	0.0152
50.628	949.86	0.2344	0.0152
50.637	949.86	0.2344	0.0152
50.645	949.86	0.2347	0.0152
50.653	949.86	0.2347	0.0152
50.662	949.86	0.2342	0.0152
50.670	949.87	0.2344	0.0152
50.678	949.87	0.2344	0.0152
50.687	949.87	0.2337	0.0151
50.695	949.87	0.2332	0.0151
50.703	949.87	0.2331	0.0151
50.712	949.87	0.2329	0.0151
50.720	949.87	0.2330	0.0151
50.728	949.87	0.2330	0.0151
50.737	949.87	0.2330	0.0151
50.745	949.88	0.2327	0.0151
50.753	949.88	0.2323	0.0151
50.762	949.88	0.2322	0.0151
50.770	949.88	0.2322	0.0151
50.778	949.88	0.2323	0.0151
50.787	949.88	0.2325	0.0151
50.795	949.88	0.2326	0.0151
50.803	949.88	0.2327	0.0151
50.812	949.88	0.2328	0.0151
50.820	949.88	0.2328	0.0151
50.828	949.88	0.2329	0.0151
50.837	949.89	0.2333	0.0151
50.845	949.89	0.2333	0.0151
50.853	949.89	0.2330	0.0151
50.862	949.89	0.2328	0.0151
50.870	949.89	0.2327	0.0151
50.878	949.89	0.2325	0.0151
50.887	949.89	0.2326	0.0151
50.895	949.89	0.2324	0.0151
50.903	949.89	0.2328	0.0151
50.912	949.89	0.2327	0.0151
50.920	949.89	0.2324	0.0151
50.928	949.89	0.2323	0.0151
50.937	949.89	0.2330	0.0151
50.945	949.90	0.2331	0.0151
50.953	949.90	0.2325	0.0151
50.962	949.90	0.2325	0.0151
50.970	949.90	0.2330	0.0151
50.978	949.90	0.2333	0.0151
50.987	949.90	0.2341	0.0152
50.995	949.90	0.2347	0.0152
51.003	949.90	0.2345	0.0152
51.012	949.90	0.2341	0.0152
51.020	949.90	0.2339	0.0152
51.028	949.90	0.2336	0.0151
51.037	949.91	0.2335	0.0151
51.045	949.91	0.2333	0.0151
51.053	949.91	0.2334	0.0151
51.062	949.91	0.2335	0.0151
51.070	949.91	0.2332	0.0151
51.078	949.91	0.2328	0.0151
51.087	949.91	0.2325	0.0151
51.095	949.91	0.2326	0.0151
51.103	949.91	0.2327	0.0151
51.112	949.91	0.2326	0.0151
51.120	949.91	0.2325	0.0151
51.128	949.91	0.2324	0.0151
51.137	949.91	0.2326	0.0151
51.145	949.91	0.2325	0.0151
51.153	949.91	0.2323	0.0151
51.162	949.91	0.2320	0.0150
51.170	949.92	0.2320	0.0150
51.178	949.92	0.2321	0.0150
51.187	949.92	0.2317	0.0150
51.195	949.92	0.2319	0.0150
51.203	949.92	0.2325	0.0151
51.212	949.92	0.2327	0.0151
51.220	949.92	0.2326	0.0151
51.228	949.92	0.2328	0.0151
51.237	949.92	0.2327	0.0151
51.245	949.92	0.2323	0.0151
51.253	949.92	0.2320	0.0150
51.262	949.92	0.2317	0.0150
51.270	949.92	0.2318	0.0150
51.278	949.92	0.2318	0.0150
51.287	949.92	0.2319	0.0150
51.295	949.92	0.2320	0.0150
51.303	949.92	0.2322	0.0151
51.312	949.93	0.2327	0.0151
51.320	949.93	0.2328	0.0151
51.328	949.93	0.2327	0.0151
51.337	949.93	0.2328	0.0151
51.345	949.93	0.2328	0.0151
51.353	949.93	0.2329	0.0151
51.362	949.93	0.2330	0.0151
51.370	949.93	0.2331	0.0151
51.378	949.93	0.2330	0.0151
51.387	949.93	0.2328	0.0151
51.395	949.93	0.2329	0.0151
51.403	949.93	0.2331	0.0151
51.412	949.93	0.2329	0.0151
51.420	949.93	0.2328	0.0151
51.428	949.93	0.2329	0.0151
51.437	949.94	0.2324	0.0151
51.445	949.94	0.2321	0.0150
51.453	949.94	0.2320	0.0150
51.462	949.94	0.2321	0.0150
51.470	949.94	0.2321	0.0150
51.478	949.94	0.2317	0.0150
51.487	949.94	0.2320	0.0150
51.495	949.94	0.2330	0.0151
51.503	949.94	0.2328	0.0151
51.512	949.94	0.2327	0.0151
51.520	949.94	0.2325	0.0151
51.528	949.94	0.2326	0.0151
51.537	949.94	0.2325	0.0151
51.545	949.94	0.2324	0.0151
51.553	949.94	0.2324	0.0151
51.562	949.94	0.2320	0.0150
51.570	949.94	0.2322	0.0151
51.578	949.94	0.2328	0.0151
51.587	949.94	0.2328	0.0151
51.595	949.95	0.2329	0.0151
51.603	949.95	0.2333	0.0151
51.612	949.95	0.2334	0.0151
51.620	949.95	0.2331	0.0151
51.628	949.95	0.2331	0.0151
51.637	949.95	0.2332	0.0151
51.645	949.95	0.2331	0.0151
51.653	949.95	0.2329	0.0151
51.662	949.95	0.2329	0.0151
51.670	949.95	0.2329	0.0151
51.678	949.95	0.2329	0.0151
51.687	949.95	0.2326	0.0151
51.695	949.95	0.2324	0.0151
51.703	949.95	0.2323	0.0151
51.712	949.95	0.2325	0.0151
51.720	949.95	0.2324	0.0151
51.728	949.95	0.2325	0.0151
51.737	949.95	0.2326	0.0151
51.745	949.95	0.2323	0.0151
51.753	949.95	0.2322	0.0150
51.762	949.95	0.2325	0.0151
51.770	949.95	0.2327	0.0151
51.778	949.95	0.2324	0.0151
51.787	949.95	0.2321	0.0150
51.795	949.95	0.2319	0.0150
51.803	949.95	0.2323	0.0151
51.812	949.95	0.2327	0.0151
51.820	949.95	0.2326	0.0151
51.828	949.95	0.2323	0.0151
51.837	949.95	0.2320	0.0150
51.845	949.95	0.2320	0.0150
51.853	949.95	0.2321	0.0150
51.862	949.95	0.2321	0.0150
51.870	949.95	0.2319	0.0150
51.878	949.95	0.2321	0.0150
51.887	949.95	0.2323	0.0151
51.895	949.95	0.2320	0.0150
51.903	949.95	0.2315	0.0150
51.912	949.95	0.2314	0.0150
51.920	949.95	0.2317	0.0150
51.928	949.95	0.2321	0.0150
51.937	949.95	0.2320	0.0150
51.945	949.95	0.2320	0.0150
51.953	949.95	0.2321	0.0150
51.962	949.95	0.2321	0.0150
51.970	949.95	0.2320	0.0150
51.978	949.95	0.2323	0.0151
51.987	949.95	0.2321	0.0150
51.995	949.95	0.2319	0.0150
52.003	949.95	0.2321	0.0150
52.012	949.95	0.2322	0.0150
52.020	949.95	0.2320	0.0150
52.028	949.95	0.2322	0.0150
52.037	949.95	0.2320	0.0150
52.045	949.95	0.2317	0.0150
52.053	949.95	0.2313	0.0150
52.062	949.95	0.2311	0.0150
52.070	949.95	0.2311	0.0150
52.078	949.95	0.2314	0.0150
52.087	949.95	0.2315	0.0150
52.095	949.95	0.2314	0.0150
52.103	949.95	0.2312	0.0150
52.112	949.95	0.2309	0.0150
52.120	949.95	0.2313	0.0150
52.128	949.95	0.2317	0.0150
52.137	949.95	0.2315	0.0150
52.145	949.95	0.2317	0.0150
52.153	949.95	0.2320	0.0150
52.162	949.96	0.2324	0.0151
52.170	949.96	0.2328	0.0151
52.178	949.96	0.2325	0.0151
52.187	949.96	0.2321	0.0150
52.195	949.96	0.2320	0.0150
52.203	949.96	0.2319	0.0150
52.212	949.96	0.2320	0.0150
52.220	949.96	0.2320	0.0150
52.228	949.96	0.2317	0.0150
52.237	949.96	0.2318	0.0150
52.245	949.96	0.2319	0.0150
52.253	949.96	0.2322	0.0150
52.262	949.96	0.2321	0.0150
52.270	949.96	0.2319	0.0150
52.278	949.96	0.2322	0.0151
52.287	949.96	0.2322	0.0151
52.295	949.96	0.2324	0.0151
52.303	949.96	0.2321	0.0150
52.312	949.96	0.2316	0.0150
52.320	949.96	0.2316	0.0150
52.328	949.96	0.2316	0.0150
52.337	949.96	0.2316	0.0150
52.345	949.96	0.2318	0.0150
52.353	949.96	0.2316	0.0150
52.362	949.96	0.2318	0.0150
52.370	949.96	0.2327	0.0151
52.378	949.96	0.2336	0.0151
52.387	949.96	0.2331	0.0151
52.395	949.96	0.2324	0.0151
52.403	949.96	0.2325	0.0151
52.412	949.96	0.2321	0.0150
52.420	949.97	0.2319	0.0150
52.428	949.97	0.2319	0.0150
52.437	949.97	0.2319	0.0150
52.445	949.97	0.2321	0.0150
52.453	949.97	0.2322	0.0151
52.462	949.97	0.2322	0.0150
52.470	949.97	0.2320	0.0150
52.478	949.97	0.2317	0.0150
52.487	949.97	0.2318	0.0150
52.495	949.97	0.2319	0.0150
52.503	949.97	0.2320	0.0150
52.512	949.97	0.2320	0.0150
52.520	949.97	0.2318	0.0150
52.528	949.97	0.2317	0.0150
52.537	949.97	0.2320	0.0150
52.545	949.97	0.2320	0.0150
52.553	949.97	0.2324	0.0151
52.562	949.97	0.2329	0.0151
52.570	949.97	0.2326	0.0151
52.578	949.97	0.2323	0.0151
52.587	949.97	0.2324	0.0151
52.595	949.97	0.2326	0.0151
52.603	949.97	0.2324	0.0151
52.612	949.97	0.2325	0.0151
52.620	949.97	0.2325	0.0151
52.628	949.97	0.2326	0.0151
52.637	949.97	0.2321	0.0150
52.645	949.97	0.2323	0.0151
52.653	949.98	0.2328	0.0151
52.662	949.98	0.2329	0.0151
52.670	949.98	0.2328	0.0151
52.678	949.98	0.2324	0.0151
52.687	949.98	0.2321	0.0150
52.695	949.98	0.2321	0.0150
52.703	949.98	0.2321	0.0150
52.712	949.98	0.2319	0.0150
52.720	949.98	0.2316	0.0150
52.728	949.98	0.2316	0.0150
52.737	949.98	0.2323	0.0151
52.745	949.98	0.2327	0.0151
52.753	949.98	0.2325	0.0151
52.762	949.98	0.2324	0.0151
52.770	949.98	0.2322	0.0150
52.778	949.98	0.2324	0.0151
52.787	949.98	0.2328	0.0151
52.795	949.98	0.2324	0.0151
52.803	949.98	0.2320	0.0150
52.812	949.98	0.2322	0.0150
52.820	949.98	0.2324	0.0151
52.828	949.98	0.2323	0.0151
52.837	949.98	0.2322	0.0150
52.845	949.98	0.2320	0.0150
52.853	949.98	0.2317	0.0150
52.862	949.98	0.2316	0.0150
52.870	949.98	0.2317	0.0150
52.878	949.98	0.2314	0.0150
52.887	949.98	0.2313	0.0150
52.895	949.98	0.2313	0.0150
52.903	949.98	0.2312	0.0150
52.912	949.98	0.2313	0.0150
52.920	949.98	0.2314	0.0150
52.928	949.98	0.2312	0.0150
52.937	949.98	0.2311	0.0150
52.945	949.98	0.2310	0.0150
52.953	949.98	0.2311	0.0150
52.962	949.98	0.2314	0.0150
52.970	949.98	0.2312	0.0150
52.978	949.98	0.2310	0.0150
52.987	949.98	0.2313	0.0150
52.995	949.98	0.2314	0.0150
53.003	949.98	0.2314	0.0150
53.012	949.98	0.2313	0.0150
53.020	949.99	0.2313	0.0150
53.028	949.99	0.2315	0.0150
53.037	949.99	0.2318	0.0150
53.045	949.99	0.2318	0.0150
53.053	949.99	0.2314	0.0150
53.062	949.99	0.2313	0.0150
53.070	949.99	0.2317	0.0150
53.078	949.99	0.2319	0.0150
53.087	949.99	0.2318	0.0150
53.095	949.99	0.2314	0.0150
53.103	949.99	0.2309	0.0150
53.112	949.99	0.2313	0.0150
53.120	949.99	0.2315	0.0150
53.128	949.99	0.2312	0.0150
53.137	949.99	0.2311	0.0150
53.145	949.99	0.2312	0.0150
53.153	949.99	0.2310	0.0150
53.162	949.99	0.2309	0.0150
53.170	949.99	0.2309	0.0150
53.178	949.99	0.2313	0.0150
53.187	949.99	0.2317	0.0150
53.195	949.99	0.2315	0.0150
53.203	949.99	0.2312	0.0150
53.212	949.99	0.2309	0.0150
53.220	949.99	0.2307	0.0150
53.228	949.99	0.2308	0.0150
53.237	949.99	0.2310	0.0150
53.245	949.99	0.2309	0.0150
53.253	949.99	0.2310	0.0150
53.262	949.99	0.2311	0.0150
53.270	949.99	0.2313	0.0150
53.278	949.99	0.2314	0.0150
53.287	949.99	0.2311	0.0150
53.295	949.99	0.2310	0.0150
53.303	949.99	0.2311	0.0150
53.312	949.99	0.2313	0.0150
53.320	949.99	0.2310	0.0150
53.328	949.99	0.2310	0.0150
53.337	949.99	0.2311	0.0150
53.345	949.99	0.2311	0.0150
53.353	949.99	0.2311	0.0150
53.362	949.99	0.2309	0.0150
53.370	949.99	0.2309	0.0150
53.378	949.99	0.2309	0.0150
53.387	949.99	0.2311	0.0150
53.395	949.99	0.2309	0.0150
53.403	949.99	0.2309	0.0150
53.412	949.99	0.2313	0.0150
53.420	949.99	0.2312	0.0150
53.428	949.99	0.2309	0.0150
53.437	949.99	0.2310	0.0150
53.445	949.99	0.2313	0.0150
53.453	949.99	0.2315	0.0150
53.462	949.99	0.2313	0.0150
53.470	949.99	0.2312	0.0150
53.478	949.99	0.2314	0.0150
53.487	949.99	0.2317	0.0150
53.495	949.99	0.2314	0.0150
53.503	949.99	0.2316	0.0150
53.512	949.99	0.2319	0.0150
53.520	949.99	0.2319	0.0150
53.528	949.99	0.2319	0.0150
53.537	949.99	0.2315	0.0150
53.545	949.99	0.2314	0.0150
53.553	949.99	0.2316	0.0150
53.562	949.99	0.2314	0.0150
53.570	949.99	0.2312	0.0150
53.578	949.99	0.2311	0.0150
53.587	949.99	0.2313	0.0150
53.595	949.99	0.2316	0.0150
53.603	949.99	0.2313	0.0150
53.612	949.99	0.2311	0.0150
53.620	949.99	0.2311	0.0150
53.628	949.99	0.2308	0.0150
53.637	949.99	0.2308	0.0150
53.645	949.99	0.2306	0.0149
53.653	949.99	0.2309	0.0150
53.662	949.99	0.2312	0.0150
53.670	949.99	0.2315	0.0150
53.678	949.99	0.2318	0.0150
53.687	949.99	0.2320	0.0150
53.695	949.99	0.2320	0.0150
53.703	949.99	0.2321	0.0150
53.712	949.99	0.2326	0.0151
53.720	949.99	0.2327	0.0151
53.728	949.99	0.2322	0.0150
53.737	949.99	0.2318	0.0150
53.745	949.99	0.2318	0.0150
53.753	949.99	0.2316	0.0150
53.762	949.99	0.2317	0.0150
53.770	949.99	0.2318	0.0150
53.778	949.99	0.2314	0.0150
53.787	949.99	0.2315	0.0150
53.795	949.99	0.2317	0.0150
53.803	949.99	0.2317	0.0150
53.812	949.99	0.2316	0.0150
53.820	949.99	0.2317	0.0150
53.828	949.99	0.2315	0.0150
53.837	949.99	0.2313	0.0150
53.845	949.99	0.2315	0.0150
53.853	949.99	0.2317	0.0150
53.862	949.99	0.2314	0.0150
53.870	949.99	0.2315	0.0150
53.878	949.99	0.2318	0.0150
53.887	949.99	0.2314	0.0150
53.895	949.99	0.2314	0.0150
53.903	949.99	0.2314	0.0150
53.912	949.99	0.2311	0.0150
53.920	949.99	0.2312	0.0150
53.928	949.99	0.2311	0.0150
53.937	949.99	0.2306	0.0149
53.945	949.99	0.2304	0.0149
53.953	949.99	0.2310	0.0150
53.962	949.99	0.2309	0.0150
53.970	949.99	0.2308	0.0150
53.978	949.99	0.2312	0.0150
53.987	949.99	0.2314	0.0150
53.995	949.99	0.2314	0.0150
54.003	949.99	0.2314	0.0150
54.012	949.99	0.2316	0.0150
54.020	949.99	0.2320	0.0150
54.028	949.99	0.2322	0.0151
54.037	949.99	0.2322	0.0150
54.045	949.99	0.2320	0.0150
54.053	949.99	0.2318	0.0150
54.062	949.99	0.2317	0.0150
54.070	949.99	0.2317	0.0150
54.078	949.99	0.2320	0.0150
54.087	949.99	0.2321	0.0150
54.095	949.99	0.2318	0.0150
54.103	949.99	0.2318	0.0150
54.112	949.99	0.2320	0.0150
54.120	949.99	0.2316	0.0150
54.128	949.99	0.2316	0.0150
54.137	949.99	0.2316	0.0150
54.145	949.99	0.2314	0.0150
54.153	949.99	0.2314	0.0150
54.162	949.99	0.2316	0.0150
54.170	949.99	0.2315	0.0150
54.178	949.99	0.2314	0.0150
54.187	949.99	0.2313	0.0150
54.195	949.99	0.2311	0.0150
54.203	949.99	0.2312	0.0150
54.212	949.99	0.2315	0.0150
54.220	949.99	0.2316	0.0150
54.228	949.99	0.2314	0.0150
54.237	949.99	0.2314	0.0150
54.245	949.99	0.2313	0.0150
54.253	949.99	0.2312	0.0150
54.262	949.99	0.2313	0.0150
54.270	949.99	0.2315	0.0150
54.278	949.99	0.2313	0.0150
54.287	949.99	0.2313	0.0150
54.295	949.99	0.2317	0.0150
54.303	949.99	0.2317	0.0150
54.312	949.99	0.2316	0.0150
54.320	949.99	0.2323	0.0151
54.328	949.99	0.2325	0.0151
54.337	949.99	0.2319	0.0150
54.345	949.99	0.2319	0.0150
54.353	949.99	0.2320	0.0150
54.362	949.99	0.2322	0.0151
54.370	949.99	0.2322	0.0151
54.378	949.99	0.2322	0.0151
54.387	949.99	0.2325	0.0151
54.395	949.99	0.2322	0.0151
54.403	949.99	0.2323	0.0151
54.412	949.99	0.2322	0.0150
54.420	949.99	0.2318	0.0150
54.428	949.99	0.2316	0.0150
54.437	949.99	0.2317	0.0150
54.445	949.99	0.2318	0.0150
54.453	949.99	0.2318	0.0150
54.462	949.99	0.2314	0.0150
54.470	949.99	0.2309	0.0150
54.478	949.99	0.2309	0.0150
54.487	949.99	0.2308	0.0150
54.495	949.99	0.2306	0.0149
54.503	949.99	0.2308	0.0150
54.512	949.99	0.2307	0.0150
54.520	949.99	0.2305	0.0149
54.528	949.99	0.2310	0.0150
54.537	949.99	0.2312	0.0150
54.545	949.99	0.2311	0.0150
54.553	949.99	0.2311	0.0150
54.562	949.99	0.2310	0.0150
54.570	949.99	0.2309	0.0150
54.578	949.99	0.2309	0.0150
54.587	949.99	0.2309	0.0150
54.595	949.99	0.2308	0.0150
54.603	949.99	0.2305	0.0149
54.612	949.99	0.2304	0.0149
54.620	949.99	0.2305	0.0149
54.628	949.99	0.2308	0.0150
54.637	950.00	0.2311	0.0150
54.645	950.00	0.2309	0.0150
54.653	950.00	0.2308	0.0150
54.662	950.00	0.2308	0.0150
54.670	950.00	0.2308	0.0150
54.678	950.00	0.2310	0.0150
54.687	950.00	0.2310	0.0150
54.695	950.00	0.2310	0.0150
54.703	950.00	0.2306	0.0149
54.712	950.00	0.2303	0.0149
54.720	950.00	0.2305	0.0149
54.728	950.00	0.2306	0.0149
54.737	950.00	0.2305	0.0149
54.745	950.00	0.2308	0.0150
54.753	950.00	0.2315	0.0150
54.762	950.00	0.2315	0.0150
54.770	950.00	0.2313	0.0150
54.778	950.00	0.2312	0.0150
54.787	950.00	0.2317	0.0150
54.795	950.00	0.2316	0.0150
54.803	950.00	0.2312	0.0150
54.812	950.00	0.2320	0.0150
54.820	950.00	0.2320	0.0150
54.828	950.00	0.2314	0.0150
54.837	950.00	0.2308	0.0150
54.845	950.00	0.2307	0.0150
54.853	950.00	0.2305	0.0149
54.862	950.00	0.2309	0.0150
54.870	950.00	0.2314	0.0150
54.878	950.00	0.2310	0.0150
54.887	950.00	0.2311	0.0150
54.895	950.00	0.2314	0.0150
54.903	950.00	0.2315	0.0150
54.912	950.00	0.2313	0.0150
54.920	950.00	0.2311	0.0150
54.928	950.00	0.2312	0.0150
54.937	950.00	0.2311	0.0150
54.945	950.00	0.2312	0.0150
54.953	950.00	0.2308	0.0150
54.962	950.00	0.2304	0.0149
54.970	950.00	0.2306	0.0149
54.978	950.00	0.2308	0.0150
54.987	950.00	0.2309	0.0150
54.995	950.00	0.2308	0.0150
55.003	950.00	0.2309	0.0150
55.012	950.00	0.2306	0.0149
55.020	950.00	0.2301	0.0149
55.028	950.00	0.2300	0.0149
55.037	950.00	0.2299	0.0149
55.045	950.00	0.2299	0.0149
55.053	950.00	0.2296	0.0149
55.062	950.00	0.2294	0.0149
55.070	950.00	0.2294	0.0149
55.078	950.00	0.2296	0.0149
55.087	950.00	0.2297	0.0149
55.095	950.00	0.2300	0.0149
55.103	950.00	0.2304	0.0149
55.112	950.00	0.2304	0.0149
55.120	950.00	0.2305	0.0149
55.128	950.00	0.2304	0.0149
55.137	950.00	0.2303	0.0149
55.145	950.00	0.2303	0.0149
55.153	950.00	0.2307	0.0150
55.162	950.00	0.2309	0.0150
55.170	950.00	0.2303	0.0149
55.178	950.00	0.2295	0.0149
55.187	950.00	0.2296	0.0149
55.195	950.00	0.2297	0.0149
55.203	950.00	0.2297	0.0149
55.212	950.00	0.2299	0.0149
55.220	950.00	0.2295	0.0149
55.228	950.00	0.2294	0.0149
55.237	950.00	0.2295	0.0149
55.245	950.00	0.2296	0.0149
55.253	950.00	0.2297	0.0149
55.262	950.00	0.2293	0.0149
55.270	950.00	0.2293	0.0149
55.278	950.00	0.2293	0.0149
55.287	950.00	0.2296	0.0149
55.295	950.00	0.2300	0.0149
55.303	950.00	0.2300	0.0149
55.312	950.00	0.2299	0.0149
55.320	950.00	0.2297	0.0149
55.328	950.00	0.2295	0.0149
55.337	950.00	0.2292	0.0149
55.345	950.00	0.2291	0.0148
55.353	950.00	0.2293	0.0149
55.362	950.00	0.2296	0.0149
55.370	950.00	0.2297	0.0149
55.378	950.00	0.2295	0.0149
55.387	950.00	0.2297	0.0149
55.395	950.00	0.2301	0.0149
55.403	950.00	0.2302	0.0149
55.412	950.00	0.2298	0.0149
55.420	950.00	0.2296	0.0149
55.428	950.00	0.2296	0.0149
55.437	950.00	0.2299	0.0149
55.445	950.00	0.2298	0.0149
55.453	950.00	0.2296	0.0149
55.462	950.00	0.2296	0.0149
55.470	950.00	0.2298	0.0149
55.478	950.00	0.2298	0.0149
55.487	950.00	0.2300	0.0149
55.495	950.00	0.2302	0.0149
55.503	950.00	0.2299	0.0149
55.512	950.00	0.2297	0.0149
55.520	950.00	0.2297	0.0149
55.528	949.99	0.2302	0.0149
55.537	949.99	0.2305	0.0149
55.545	949.99	0.2304	0.0149
55.553	949.99	0.2308	0.0150
55.562	949.99	0.2313	0.0150
55.570	949.99	0.2309	0.0150
55.578	949.99	0.2303	0.0149
55.587	949.99	0.2303	0.0149
55.595	949.99	0.2309	0.0150
55.603	949.99	0.2312	0.0150
55.612	949.99	0.2309	0.0150
55.620	949.99	0.2307	0.0150
55.628	949.99	0.2307	0.0150
55.637	949.99	0.2308	0.0150
55.645	949.99	0.2309	0.0150
55.653	949.99	0.2309	0.0150
55.662	949.99	0.2310	0.0150
55.670	949.99	0.2308	0.0150
55.678	949.99	0.2306	0.0149
55.687	949.99	0.2305	0.0149
55.695	949.99	0.2305	0.0149
55.703	949.99	0.2305	0.0149
55.712	949.99	0.2304	0.0149
55.720	949.99	0.2305	0.0149
55.728	949.99	0.2305	0.0149
55.737	949.99	0.2304	0.0149
55.745	949.99	0.2304	0.0149
55.753	949.99	0.2304	0.0149
55.762	949.99	0.2303	0.0149
55.770	949.99	0.2304	0.0149
55.778	949.99	0.2304	0.0149
55.787	949.99	0.2303	0.0149
55.795	949.99	0.2303	0.0149
55.803	949.99	0.2305	0.0149
55.812	949.99	0.2306	0.0150
55.820	949.99	0.2307	0.0150
55.828	949.99	0.2306	0.0149
55.837	949.99	0.2306	0.0149
55.845	949.99	0.2306	0.0149
55.853	949.99	0.2304	0.0149
55.862	949.99	0.2303	0.0149
55.870	950.00	0.2304	0.0149
55.878	950.00	0.2305	0.0149
55.887	950.00	0.2308	0.0150
55.895	950.00	0.2308	0.0150
55.903	950.00	0.2306	0.0149
55.912	950.00	0.2306	0.0149
55.920	950.00	0.2308	0.0150
55.928	950.00	0.2307	0.0150
55.937	950.00	0.2306	0.0149
55.945	950.00	0.2307	0.0150
55.953	950.00	0.2310	0.0150
55.962	950.00	0.2305	0.0149
55.970	950.00	0.2305	0.0149
55.978	950.00	0.2307	0.0150
55.987	950.00	0.2305	0.0149
55.995	950.00	0.2301	0.0149
56.003	950.00	0.2298	0.0149
56.012	950.00	0.2307	0.0150
56.020	950.00	0.2308	0.0150
56.028	950.00	0.2300	0.0149
56.037	950.00	0.2299	0.0149
56.045	950.00	0.2304	0.0149
56.053	950.00	0.2301	0.0149
56.062	950.00	0.2295	0.0149
56.070	950.00	0.2295	0.0149
56.078	950.00	0.2300	0.0149
56.087	950.00	0.2302	0.0149
56.095	950.00	0.2302	0.0149
56.103	950.00	0.2303	0.0149

