Filename	CLSOx100_6
Instrument name	5500-0018 (192.168.1.3)
Operator	mp933
rundate	10/25/2022
Sample name	CLSOx100_6
proceduresegments	Select Gas: Gas 2 ; Mass Flow  25.00 mL/min; Ramp 10.00 °C/min to 110.00 °C; Isothermal 30.0 min; Ramp 100.00 °C/min to 950.00 °C; Isothermal 10.0 min; Data Off ; Equilibrate 40.00 °C
[step]
Ramp 10.00 °C/min to 110.00 °C
Time	Temperature	Weight	Weight
min	°C	%	mg
0.003	35.69	96.6797	5.9011
0.012	35.67	95.3055	5.8173
0.020	35.65	95.2399	5.8133
0.028	35.63	95.2282	5.8125
0.037	35.62	95.1905	5.8102
0.045	35.60	95.2530	5.8141
0.053	35.58	95.2387	5.8132
0.062	35.56	95.1915	5.8103
0.070	35.55	95.2306	5.8127
0.078	35.53	95.2254	5.8124
0.087	35.52	95.1813	5.8097
0.095	35.50	95.2263	5.8124
0.103	35.48	95.2135	5.8116
0.112	35.47	95.1938	5.8104
0.120	35.45	95.2401	5.8133
0.128	35.44	95.2283	5.8126
0.137	35.42	95.2151	5.8117
0.145	35.41	95.2546	5.8142
0.153	35.39	95.2279	5.8125
0.162	35.38	95.1983	5.8107
0.170	35.36	95.2200	5.8120
0.178	35.35	95.2159	5.8118
0.187	35.34	95.2150	5.8117
0.195	35.32	95.2171	5.8119
0.203	35.31	95.2156	5.8118
0.212	35.30	95.2077	5.8113
0.220	35.28	95.2009	5.8109
0.228	35.27	95.1962	5.8106
0.237	35.26	95.1913	5.8103
0.245	35.25	95.1883	5.8101
0.253	35.24	95.1861	5.8100
0.262	35.23	95.1823	5.8097
0.270	35.22	95.1795	5.8096
0.278	35.21	95.1772	5.8094
0.287	35.20	95.1747	5.8093
0.295	35.19	95.1723	5.8091
0.303	35.19	95.1706	5.8090
0.312	35.19	95.1681	5.8089
0.320	35.18	95.1657	5.8087
0.328	35.18	95.1642	5.8086
0.337	35.18	95.1617	5.8085
0.345	35.18	95.1589	5.8083
0.353	35.19	95.1574	5.8082
0.362	35.20	95.1550	5.8081
0.370	35.20	95.1514	5.8079
0.378	35.22	95.1491	5.8077
0.387	35.23	95.1470	5.8076
0.395	35.25	95.1428	5.8073
0.403	35.27	95.1401	5.8072
0.412	35.29	95.1381	5.8070
0.420	35.32	95.1358	5.8069
0.428	35.35	95.1338	5.8068
0.437	35.38	95.1322	5.8067
0.445	35.42	95.1301	5.8066
0.453	35.46	95.1281	5.8064
0.462	35.50	95.1264	5.8063
0.470	35.55	95.1242	5.8062
0.478	35.59	95.1217	5.8060
0.487	35.64	95.1195	5.8059
0.495	35.70	95.1169	5.8057
0.503	35.75	95.1142	5.8056
0.512	35.81	95.1118	5.8054
0.520	35.87	95.1089	5.8053
0.528	35.93	95.1054	5.8050
0.537	36.00	95.1026	5.8049
0.545	36.07	95.0996	5.8047
0.553	36.13	95.0950	5.8044
0.562	36.20	95.0916	5.8042
0.570	36.27	95.0882	5.8040
0.578	36.35	95.0846	5.8038
0.587	36.42	95.0802	5.8035
0.595	36.49	95.0764	5.8033
0.603	36.57	95.0725	5.8030
0.612	36.65	95.0684	5.8028
0.620	36.72	95.0651	5.8026
0.628	36.80	95.0611	5.8023
0.637	36.88	95.0574	5.8021
0.645	36.96	95.0542	5.8019
0.653	37.04	95.0505	5.8017
0.662	37.12	95.0467	5.8015
0.670	37.20	95.0433	5.8013
0.678	37.28	95.0397	5.8010
0.687	37.36	95.0358	5.8008
0.695	37.44	95.0321	5.8006
0.703	37.52	95.0283	5.8003
0.712	37.61	95.0242	5.8001
0.720	37.69	95.0205	5.7999
0.728	37.77	95.0167	5.7996
0.737	37.85	95.0124	5.7994
0.745	37.93	95.0087	5.7991
0.753	38.01	95.0048	5.7989
0.762	38.09	95.0007	5.7987
0.770	38.17	94.9967	5.7984
0.778	38.26	94.9929	5.7982
0.787	38.34	94.9888	5.7979
0.795	38.42	94.9847	5.7977
0.803	38.50	94.9810	5.7975
0.812	38.58	94.9768	5.7972
0.820	38.66	94.9725	5.7969
0.828	38.74	94.9687	5.7967
0.837	38.82	94.9646	5.7965
0.845	38.90	94.9605	5.7962
0.853	38.98	94.9566	5.7960
0.862	39.07	94.9526	5.7957
0.870	39.15	94.9483	5.7955
0.878	39.23	94.9444	5.7952
0.887	39.31	94.9404	5.7950
0.895	39.39	94.9362	5.7947
0.903	39.47	94.9323	5.7945
0.912	39.55	94.9283	5.7942
0.920	39.64	94.9241	5.7940
0.928	39.72	94.9201	5.7937
0.937	39.80	94.9161	5.7935
0.945	39.88	94.9119	5.7932
0.953	39.96	94.9078	5.7930
0.962	40.05	94.9039	5.7927
0.970	40.13	94.8997	5.7925
0.978	40.21	94.8955	5.7922
0.987	40.30	94.8915	5.7920
0.995	40.38	94.8874	5.7917
1.003	40.46	94.8831	5.7915
1.012	40.55	94.8790	5.7912
1.020	40.63	94.8750	5.7910
1.028	40.71	94.8707	5.7907
1.037	40.80	94.8667	5.7905
1.045	40.88	94.8628	5.7902
1.053	40.97	94.8586	5.7900
1.062	41.05	94.8544	5.7897
1.070	41.14	94.8502	5.7895
1.078	41.22	94.8459	5.7892
1.087	41.31	94.8419	5.7890
1.095	41.39	94.8377	5.7887
1.103	41.48	94.8333	5.7884
1.112	41.56	94.8291	5.7882
1.120	41.65	94.8249	5.7879
1.128	41.74	94.8206	5.7877
1.137	41.82	94.8164	5.7874
1.145	41.91	94.8123	5.7872
1.153	41.99	94.8079	5.7869
1.162	42.08	94.8034	5.7866
1.170	42.16	94.7993	5.7864
1.178	42.25	94.7950	5.7861
1.187	42.33	94.7906	5.7858
1.195	42.42	94.7865	5.7856
1.203	42.51	94.7823	5.7853
1.212	42.59	94.7779	5.7851
1.220	42.68	94.7736	5.7848
1.228	42.76	94.7694	5.7845
1.237	42.85	94.7649	5.7843
1.245	42.93	94.7606	5.7840
1.253	43.02	94.7564	5.7837
1.262	43.10	94.7521	5.7835
1.270	43.19	94.7477	5.7832
1.278	43.27	94.7435	5.7830
1.287	43.36	94.7392	5.7827
1.295	43.44	94.7348	5.7824
1.303	43.53	94.7305	5.7822
1.312	43.61	94.7260	5.7819
1.320	43.70	94.7215	5.7816
1.328	43.78	94.7173	5.7814
1.337	43.87	94.7129	5.7811
1.345	43.95	94.7086	5.7808
1.353	44.04	94.7043	5.7806
1.362	44.12	94.6999	5.7803
1.370	44.21	94.6953	5.7800
1.378	44.29	94.6910	5.7798
1.387	44.38	94.6866	5.7795
1.395	44.46	94.6821	5.7792
1.403	44.55	94.6777	5.7789
1.412	44.63	94.6736	5.7787
1.420	44.72	94.6691	5.7784
1.428	44.80	94.6645	5.7781
1.437	44.89	94.6603	5.7779
1.445	44.97	94.6559	5.7776
1.453	45.06	94.6514	5.7773
1.462	45.14	94.6470	5.7771
1.470	45.23	94.6427	5.7768
1.478	45.31	94.6383	5.7765
1.487	45.40	94.6339	5.7763
1.495	45.48	94.6293	5.7760
1.503	45.57	94.6248	5.7757
1.512	45.65	94.6203	5.7754
1.520	45.74	94.6158	5.7752
1.528	45.83	94.6114	5.7749
1.537	45.91	94.6072	5.7746
1.545	46.00	94.6029	5.7744
1.553	46.08	94.5982	5.7741
1.562	46.17	94.5937	5.7738
1.570	46.25	94.5893	5.7735
1.578	46.34	94.5848	5.7733
1.587	46.42	94.5803	5.7730
1.595	46.51	94.5760	5.7727
1.603	46.59	94.5714	5.7725
1.612	46.68	94.5669	5.7722
1.620	46.76	94.5624	5.7719
1.628	46.85	94.5580	5.7716
1.637	46.93	94.5535	5.7714
1.645	47.02	94.5494	5.7711
1.653	47.10	94.5451	5.7708
1.662	47.19	94.5407	5.7706
1.670	47.27	94.5362	5.7703
1.678	47.36	94.5318	5.7700
1.687	47.45	94.5272	5.7698
1.695	47.53	94.5227	5.7695
1.703	47.62	94.5183	5.7692
1.712	47.70	94.5138	5.7689
1.720	47.79	94.5092	5.7687
1.728	47.87	94.5047	5.7684
1.737	47.96	94.5002	5.7681
1.745	48.04	94.4958	5.7678
1.753	48.13	94.4912	5.7676
1.762	48.21	94.4866	5.7673
1.770	48.30	94.4820	5.7670
1.778	48.38	94.4775	5.7667
1.787	48.47	94.4729	5.7664
1.795	48.55	94.4685	5.7662
1.803	48.64	94.4641	5.7659
1.812	48.72	94.4595	5.7656
1.820	48.81	94.4549	5.7653
1.828	48.89	94.4504	5.7651
1.837	48.98	94.4459	5.7648
1.845	49.06	94.4414	5.7645
1.853	49.15	94.4369	5.7642
1.862	49.23	94.4323	5.7640
1.870	49.32	94.4277	5.7637
1.878	49.40	94.4232	5.7634
1.887	49.49	94.4187	5.7631
1.895	49.57	94.4142	5.7629
1.903	49.66	94.4099	5.7626
1.912	49.74	94.4053	5.7623
1.920	49.83	94.4007	5.7620
1.928	49.91	94.3962	5.7618
1.937	50.00	94.3918	5.7615
1.945	50.08	94.3873	5.7612
1.953	50.17	94.3828	5.7609
1.962	50.25	94.3785	5.7607
1.970	50.34	94.3740	5.7604
1.978	50.42	94.3694	5.7601
1.987	50.51	94.3649	5.7598
1.995	50.59	94.3603	5.7596
2.003	50.67	94.3558	5.7593
2.012	50.76	94.3513	5.7590
2.020	50.84	94.3469	5.7587
2.028	50.93	94.3424	5.7585
2.037	51.01	94.3379	5.7582
2.045	51.10	94.3336	5.7579
2.053	51.18	94.3291	5.7577
2.062	51.27	94.3246	5.7574
2.070	51.35	94.3201	5.7571
2.078	51.44	94.3156	5.7568
2.087	51.52	94.3111	5.7566
2.095	51.60	94.3066	5.7563
2.103	51.69	94.3022	5.7560
2.112	51.77	94.2978	5.7557
2.120	51.86	94.2934	5.7555
2.128	51.94	94.2889	5.7552
2.137	52.03	94.2844	5.7549
2.145	52.11	94.2800	5.7547
2.153	52.20	94.2756	5.7544
2.162	52.28	94.2712	5.7541
2.170	52.36	94.2668	5.7539
2.178	52.45	94.2625	5.7536
2.187	52.53	94.2583	5.7533
2.195	52.62	94.2543	5.7531
2.203	52.70	94.2501	5.7528
2.212	52.78	94.2456	5.7526
2.220	52.87	94.2412	5.7523
2.228	52.95	94.2368	5.7520
2.237	53.04	94.2325	5.7518
2.245	53.12	94.2281	5.7515
2.253	53.21	94.2236	5.7512
2.262	53.29	94.2192	5.7510
2.270	53.38	94.2149	5.7507
2.278	53.46	94.2105	5.7504
2.287	53.54	94.2062	5.7502
2.295	53.63	94.2018	5.7499
2.303	53.71	94.1975	5.7496
2.312	53.80	94.1932	5.7494
2.320	53.88	94.1889	5.7491
2.328	53.97	94.1846	5.7488
2.337	54.05	94.1802	5.7486
2.345	54.14	94.1758	5.7483
2.353	54.22	94.1716	5.7480
2.362	54.31	94.1674	5.7478
2.370	54.39	94.1630	5.7475
2.378	54.48	94.1588	5.7473
2.387	54.56	94.1547	5.7470
2.395	54.64	94.1504	5.7468
2.403	54.73	94.1463	5.7465
2.412	54.81	94.1421	5.7463
2.420	54.90	94.1379	5.7460
2.428	54.98	94.1336	5.7457
2.437	55.07	94.1294	5.7455
2.445	55.15	94.1251	5.7452
2.453	55.23	94.1209	5.7450
2.462	55.32	94.1168	5.7447
2.470	55.40	94.1127	5.7445
2.478	55.49	94.1085	5.7442
2.487	55.57	94.1042	5.7439
2.495	55.66	94.1000	5.7437
2.503	55.74	94.0959	5.7434
2.512	55.82	94.0916	5.7432
2.520	55.91	94.0873	5.7429
2.528	55.99	94.0831	5.7426
2.537	56.08	94.0791	5.7424
2.545	56.16	94.0750	5.7422
2.553	56.24	94.0708	5.7419
2.562	56.33	94.0666	5.7416
2.570	56.41	94.0624	5.7414
2.578	56.50	94.0583	5.7411
2.587	56.58	94.0543	5.7409
2.595	56.66	94.0502	5.7406
2.603	56.75	94.0460	5.7404
2.612	56.83	94.0419	5.7401
2.620	56.92	94.0378	5.7399
2.628	57.00	94.0338	5.7396
2.637	57.08	94.0296	5.7394
2.645	57.17	94.0255	5.7391
2.653	57.25	94.0214	5.7389
2.662	57.34	94.0173	5.7386
2.670	57.42	94.0132	5.7384
2.678	57.51	94.0092	5.7381
2.687	57.59	94.0053	5.7379
2.695	57.67	94.0013	5.7377
2.703	57.76	93.9972	5.7374
2.712	57.84	93.9933	5.7372
2.720	57.93	93.9892	5.7369
2.728	58.01	93.9853	5.7367
2.737	58.09	93.9813	5.7364
2.745	58.18	93.9774	5.7362
2.753	58.26	93.9735	5.7360
2.762	58.35	93.9696	5.7357
2.770	58.43	93.9657	5.7355
2.778	58.51	93.9619	5.7352
2.787	58.60	93.9578	5.7350
2.795	58.68	93.9537	5.7348
2.803	58.77	93.9497	5.7345
2.812	58.85	93.9457	5.7343
2.820	58.93	93.9417	5.7340
2.828	59.02	93.9379	5.7338
2.837	59.10	93.9342	5.7336
2.845	59.18	93.9302	5.7333
2.853	59.27	93.9262	5.7331
2.862	59.35	93.9222	5.7328
2.870	59.44	93.9184	5.7326
2.878	59.52	93.9147	5.7324
2.887	59.60	93.9108	5.7321
2.895	59.69	93.9069	5.7319
2.903	59.77	93.9030	5.7317
2.912	59.86	93.8991	5.7314
2.920	59.94	93.8954	5.7312
2.928	60.02	93.8915	5.7310
2.937	60.11	93.8875	5.7307
2.945	60.19	93.8834	5.7305
2.953	60.27	93.8797	5.7302
2.962	60.36	93.8759	5.7300
2.970	60.44	93.8721	5.7298
2.978	60.53	93.8684	5.7295
2.987	60.61	93.8650	5.7293
2.995	60.69	93.8613	5.7291
3.003	60.78	93.8574	5.7289
3.012	60.86	93.8537	5.7286
3.020	60.94	93.8500	5.7284
3.028	61.03	93.8463	5.7282
3.037	61.11	93.8427	5.7280
3.045	61.19	93.8391	5.7278
3.053	61.28	93.8355	5.7275
3.062	61.36	93.8319	5.7273
3.070	61.44	93.8281	5.7271
3.078	61.53	93.8244	5.7269
3.087	61.61	93.8208	5.7266
3.095	61.69	93.8171	5.7264
3.103	61.78	93.8136	5.7262
3.112	61.86	93.8100	5.7260
3.120	61.94	93.8064	5.7258
3.128	62.03	93.8029	5.7255
3.137	62.11	93.7995	5.7253
3.145	62.19	93.7957	5.7251
3.153	62.28	93.7920	5.7249
3.162	62.36	93.7884	5.7247
3.170	62.44	93.7849	5.7244
3.178	62.53	93.7814	5.7242
3.187	62.61	93.7777	5.7240
3.195	62.69	93.7740	5.7238
3.203	62.78	93.7704	5.7236
3.212	62.86	93.7668	5.7233
3.220	62.94	93.7631	5.7231
3.228	63.03	93.7596	5.7229
3.237	63.11	93.7563	5.7227
3.245	63.19	93.7529	5.7225
3.253	63.28	93.7493	5.7223
3.262	63.36	93.7459	5.7221
3.270	63.44	93.7425	5.7219
3.278	63.53	93.7390	5.7216
3.287	63.61	93.7355	5.7214
3.295	63.69	93.7321	5.7212
3.303	63.78	93.7286	5.7210
3.312	63.86	93.7251	5.7208
3.320	63.95	93.7216	5.7206
3.328	64.03	93.7182	5.7204
3.337	64.11	93.7150	5.7202
3.345	64.20	93.7114	5.7200
3.353	64.28	93.7077	5.7197
3.362	64.36	93.7039	5.7195
3.370	64.45	93.7003	5.7193
3.378	64.53	93.6969	5.7191
3.387	64.62	93.6937	5.7189
3.395	64.70	93.6905	5.7187
3.403	64.78	93.6871	5.7185
3.412	64.87	93.6838	5.7183
3.420	64.95	93.6804	5.7181
3.428	65.03	93.6771	5.7179
3.437	65.12	93.6743	5.7177
3.445	65.20	93.6712	5.7175
3.453	65.29	93.6678	5.7173
3.462	65.37	93.6645	5.7171
3.470	65.45	93.6612	5.7169
3.478	65.54	93.6578	5.7167
3.487	65.62	93.6545	5.7165
3.495	65.71	93.6511	5.7163
3.503	65.79	93.6479	5.7161
3.512	65.87	93.6447	5.7159
3.520	65.96	93.6414	5.7157
3.528	66.04	93.6382	5.7155
3.537	66.12	93.6350	5.7153
3.545	66.21	93.6317	5.7151
3.553	66.29	93.6285	5.7149
3.562	66.37	93.6253	5.7147
3.570	66.46	93.6221	5.7145
3.578	66.54	93.6189	5.7143
3.587	66.63	93.6157	5.7141
3.595	66.71	93.6125	5.7139
3.603	66.79	93.6093	5.7137
3.612	66.88	93.6063	5.7135
3.620	66.96	93.6032	5.7134
3.628	67.04	93.6000	5.7132
3.637	67.13	93.5968	5.7130
3.645	67.21	93.5937	5.7128
3.653	67.29	93.5907	5.7126
3.662	67.38	93.5876	5.7124
3.670	67.46	93.5845	5.7122
3.678	67.54	93.5813	5.7120
3.687	67.63	93.5784	5.7118
3.695	67.71	93.5753	5.7117
3.703	67.79	93.5723	5.7115
3.712	67.88	93.5694	5.7113
3.720	67.96	93.5663	5.7111
3.728	68.04	93.5634	5.7109
3.737	68.13	93.5604	5.7107
3.745	68.21	93.5573	5.7106
3.753	68.29	93.5542	5.7104
3.762	68.38	93.5510	5.7102
3.770	68.46	93.5479	5.7100
3.778	68.54	93.5449	5.7098
3.787	68.63	93.5420	5.7096
3.795	68.71	93.5391	5.7094
3.803	68.79	93.5360	5.7093
3.812	68.88	93.5330	5.7091
3.820	68.96	93.5300	5.7089
3.828	69.05	93.5271	5.7087
3.837	69.13	93.5243	5.7085
3.845	69.21	93.5215	5.7084
3.853	69.30	93.5185	5.7082
3.862	69.38	93.5155	5.7080
3.870	69.47	93.5128	5.7078
3.878	69.55	93.5100	5.7077
3.887	69.63	93.5071	5.7075
3.895	69.72	93.5042	5.7073
3.903	69.80	93.5011	5.7071
3.912	69.88	93.4983	5.7070
3.920	69.97	93.4955	5.7068
3.928	70.05	93.4925	5.7066
3.937	70.14	93.4897	5.7064
3.945	70.22	93.4869	5.7063
3.953	70.30	93.4841	5.7061
3.962	70.39	93.4814	5.7059
3.970	70.47	93.4786	5.7057
3.978	70.55	93.4757	5.7056
3.987	70.64	93.4730	5.7054
3.995	70.72	93.4702	5.7052
4.003	70.80	93.4673	5.7051
4.012	70.89	93.4644	5.7049
4.020	70.97	93.4615	5.7047
4.028	71.05	93.4589	5.7045
4.037	71.14	93.4560	5.7044
4.045	71.22	93.4533	5.7042
4.053	71.31	93.4508	5.7041
4.062	71.39	93.4482	5.7039
4.070	71.47	93.4453	5.7037
4.078	71.56	93.4426	5.7036
4.087	71.64	93.4399	5.7034
4.095	71.72	93.4373	5.7032
4.103	71.81	93.4346	5.7031
4.112	71.89	93.4318	5.7029
4.120	71.97	93.4290	5.7027
4.128	72.06	93.4263	5.7026
4.137	72.14	93.4236	5.7024
4.145	72.22	93.4210	5.7022
4.153	72.30	93.4184	5.7021
4.162	72.39	93.4157	5.7019
4.170	72.47	93.4133	5.7018
4.178	72.55	93.4107	5.7016
4.187	72.64	93.4079	5.7014
4.195	72.72	93.4053	5.7013
4.203	72.80	93.4027	5.7011
4.212	72.88	93.4002	5.7010
4.220	72.97	93.3977	5.7008
4.228	73.05	93.3950	5.7006
4.237	73.13	93.3924	5.7005
4.245	73.22	93.3899	5.7003
4.253	73.30	93.3874	5.7002
4.262	73.38	93.3849	5.7000
4.270	73.46	93.3825	5.6999
4.278	73.55	93.3800	5.6997
4.287	73.63	93.3776	5.6996
4.295	73.71	93.3750	5.6994
4.303	73.79	93.3726	5.6993
4.312	73.88	93.3701	5.6991
4.320	73.96	93.3678	5.6990
4.328	74.04	93.3656	5.6989
4.337	74.13	93.3632	5.6987
4.345	74.21	93.3608	5.6986
4.353	74.29	93.3585	5.6984
4.362	74.37	93.3559	5.6983
4.370	74.46	93.3533	5.6981
4.378	74.54	93.3508	5.6980
4.387	74.62	93.3485	5.6978
4.395	74.71	93.3460	5.6977
4.403	74.79	93.3434	5.6975
4.412	74.87	93.3411	5.6974
4.420	74.95	93.3388	5.6972
4.428	75.04	93.3365	5.6971
4.437	75.12	93.3342	5.6969
4.445	75.20	93.3320	5.6968
4.453	75.29	93.3296	5.6967
4.462	75.37	93.3273	5.6965
4.470	75.45	93.3249	5.6964
4.478	75.54	93.3226	5.6962
4.487	75.62	93.3202	5.6961
4.495	75.70	93.3179	5.6959
4.503	75.79	93.3157	5.6958
4.512	75.87	93.3133	5.6957
4.520	75.96	93.3109	5.6955
4.528	76.04	93.3086	5.6954
4.537	76.12	93.3064	5.6952
4.545	76.21	93.3040	5.6951
4.553	76.29	93.3017	5.6949
4.562	76.38	93.2994	5.6948
4.570	76.46	93.2971	5.6947
4.578	76.54	93.2951	5.6945
4.587	76.63	93.2929	5.6944
4.595	76.71	93.2906	5.6943
4.603	76.80	93.2884	5.6941
4.612	76.88	93.2862	5.6940
4.620	76.96	93.2840	5.6939
4.628	77.05	93.2817	5.6937
4.637	77.13	93.2795	5.6936
4.645	77.21	93.2772	5.6935
4.653	77.30	93.2750	5.6933
4.662	77.38	93.2728	5.6932
4.670	77.47	93.2706	5.6931
4.678	77.55	93.2685	5.6929
4.687	77.63	93.2662	5.6928
4.695	77.72	93.2640	5.6927
4.703	77.80	93.2619	5.6925
4.712	77.88	93.2597	5.6924
4.720	77.97	93.2577	5.6923
4.728	78.05	93.2556	5.6921
4.737	78.14	93.2535	5.6920
4.745	78.22	93.2512	5.6919
4.753	78.30	93.2490	5.6917
4.762	78.39	93.2467	5.6916
4.770	78.47	93.2445	5.6915
4.778	78.55	93.2423	5.6913
4.787	78.64	93.2403	5.6912
4.795	78.72	93.2382	5.6911
4.803	78.80	93.2360	5.6909
4.812	78.88	93.2339	5.6908
4.820	78.97	93.2318	5.6907
4.828	79.05	93.2298	5.6906
4.837	79.13	93.2278	5.6904
4.845	79.22	93.2259	5.6903
4.853	79.30	93.2240	5.6902
4.862	79.38	93.2219	5.6901
4.870	79.46	93.2199	5.6900
4.878	79.55	93.2180	5.6898
4.887	79.63	93.2160	5.6897
4.895	79.71	93.2141	5.6896
4.903	79.80	93.2122	5.6895
4.912	79.88	93.2101	5.6894
4.920	79.96	93.2082	5.6892
4.928	80.05	93.2064	5.6891
4.937	80.13	93.2046	5.6890
4.945	80.21	93.2025	5.6889
4.953	80.29	93.2005	5.6888
4.962	80.38	93.1987	5.6887
4.970	80.46	93.1969	5.6886
4.978	80.54	93.1950	5.6884
4.987	80.63	93.1930	5.6883
4.995	80.71	93.1913	5.6882
5.003	80.79	93.1895	5.6881
5.012	80.88	93.1875	5.6880
5.020	80.96	93.1856	5.6879
5.028	81.04	93.1837	5.6877
5.037	81.13	93.1818	5.6876
5.045	81.21	93.1800	5.6875
5.053	81.29	93.1782	5.6874
5.062	81.38	93.1765	5.6873
5.070	81.46	93.1746	5.6872
5.078	81.54	93.1726	5.6871
5.087	81.63	93.1706	5.6869
5.095	81.71	93.1688	5.6868
5.103	81.79	93.1670	5.6867
5.112	81.88	93.1651	5.6866
5.120	81.96	93.1631	5.6865
5.128	82.04	93.1613	5.6864
5.137	82.13	93.1594	5.6863
5.145	82.21	93.1575	5.6861
5.153	82.29	93.1557	5.6860
5.162	82.37	93.1540	5.6859
5.170	82.46	93.1523	5.6858
5.178	82.54	93.1504	5.6857
5.187	82.62	93.1485	5.6856
5.195	82.71	93.1468	5.6855
5.203	82.79	93.1451	5.6854
5.212	82.87	93.1434	5.6853
5.220	82.96	93.1416	5.6852
5.228	83.04	93.1399	5.6851
5.237	83.12	93.1384	5.6850
5.245	83.21	93.1365	5.6849
5.253	83.29	93.1345	5.6847
5.262	83.37	93.1328	5.6846
5.270	83.46	93.1312	5.6845
5.278	83.54	93.1295	5.6844
5.287	83.62	93.1279	5.6843
5.295	83.70	93.1264	5.6842
5.303	83.79	93.1246	5.6841
5.312	83.87	93.1227	5.6840
5.320	83.95	93.1210	5.6839
5.328	84.04	93.1194	5.6838
5.337	84.12	93.1176	5.6837
5.345	84.20	93.1161	5.6836
5.353	84.29	93.1144	5.6835
5.362	84.37	93.1128	5.6834
5.370	84.45	93.1112	5.6833
5.378	84.54	93.1095	5.6832
5.387	84.62	93.1079	5.6831
5.395	84.70	93.1061	5.6830
5.403	84.79	93.1044	5.6829
5.412	84.87	93.1028	5.6828
5.420	84.95	93.1013	5.6827
5.428	85.04	93.0997	5.6826
5.437	85.12	93.0981	5.6825
5.445	85.20	93.0965	5.6824
5.453	85.29	93.0950	5.6823
5.462	85.37	93.0934	5.6822
5.470	85.46	93.0920	5.6822
5.478	85.54	93.0904	5.6821
5.487	85.62	93.0889	5.6820
5.495	85.71	93.0876	5.6819
5.503	85.79	93.0863	5.6818
5.512	85.87	93.0847	5.6817
5.520	85.96	93.0831	5.6816
5.528	86.04	93.0816	5.6815
5.537	86.13	93.0800	5.6814
5.545	86.21	93.0784	5.6813
5.553	86.29	93.0769	5.6812
5.562	86.38	93.0754	5.6811
5.570	86.46	93.0741	5.6811
5.578	86.54	93.0726	5.6810
5.587	86.63	93.0711	5.6809
5.595	86.71	93.0696	5.6808
5.603	86.79	93.0682	5.6807
5.612	86.88	93.0667	5.6806
5.620	86.96	93.0653	5.6805
5.628	87.04	93.0640	5.6804
5.637	87.12	93.0626	5.6804
5.645	87.21	93.0611	5.6803
5.653	87.29	93.0596	5.6802
5.662	87.37	93.0581	5.6801
5.670	87.46	93.0568	5.6800
5.678	87.54	93.0554	5.6799
5.687	87.62	93.0539	5.6798
5.695	87.70	93.0526	5.6797
5.703	87.79	93.0513	5.6797
5.712	87.87	93.0500	5.6796
5.720	87.95	93.0485	5.6795
5.728	88.04	93.0470	5.6794
5.737	88.12	93.0457	5.6793
5.745	88.20	93.0442	5.6792
5.753	88.29	93.0427	5.6791
5.762	88.37	93.0412	5.6790
5.770	88.45	93.0398	5.6790
5.778	88.53	93.0386	5.6789
5.787	88.62	93.0375	5.6788
5.795	88.70	93.0361	5.6787
5.803	88.78	93.0347	5.6787
5.812	88.87	93.0332	5.6786
5.820	88.95	93.0318	5.6785
5.828	89.03	93.0305	5.6784
5.837	89.12	93.0292	5.6783
5.845	89.20	93.0280	5.6782
5.853	89.28	93.0268	5.6782
5.862	89.37	93.0257	5.6781
5.870	89.45	93.0244	5.6780
5.878	89.53	93.0230	5.6779
5.887	89.62	93.0217	5.6779
5.895	89.70	93.0206	5.6778
5.903	89.78	93.0191	5.6777
5.912	89.86	93.0178	5.6776
5.920	89.95	93.0166	5.6776
5.928	90.03	93.0153	5.6775
5.937	90.11	93.0141	5.6774
5.945	90.20	93.0128	5.6773
5.953	90.28	93.0116	5.6772
5.962	90.36	93.0106	5.6772
5.970	90.45	93.0095	5.6771
5.978	90.53	93.0081	5.6770
5.987	90.61	93.0068	5.6769
5.995	90.70	93.0055	5.6769
6.003	90.78	93.0044	5.6768
6.012	90.86	93.0033	5.6767
6.020	90.95	93.0021	5.6767
6.028	91.03	93.0010	5.6766
6.037	91.11	93.0001	5.6765
6.045	91.20	92.9988	5.6765
6.053	91.28	92.9976	5.6764
6.062	91.36	92.9964	5.6763
6.070	91.45	92.9952	5.6762
6.078	91.53	92.9940	5.6762
6.087	91.61	92.9928	5.6761
6.095	91.70	92.9918	5.6760
6.103	91.78	92.9907	5.6760
6.112	91.86	92.9895	5.6759
6.120	91.95	92.9885	5.6758
6.128	92.03	92.9876	5.6758
6.137	92.11	92.9864	5.6757
6.145	92.20	92.9852	5.6756
6.153	92.28	92.9841	5.6756
6.162	92.36	92.9830	5.6755
6.170	92.45	92.9820	5.6754
6.178	92.53	92.9809	5.6754
6.187	92.61	92.9798	5.6753
6.195	92.69	92.9787	5.6752
6.203	92.78	92.9775	5.6752
6.212	92.86	92.9765	5.6751
6.220	92.94	92.9757	5.6751
6.228	93.03	92.9747	5.6750
6.237	93.11	92.9735	5.6749
6.245	93.19	92.9726	5.6749
6.253	93.28	92.9714	5.6748
6.262	93.36	92.9702	5.6747
6.270	93.44	92.9690	5.6746
6.278	93.52	92.9681	5.6746
6.287	93.61	92.9670	5.6745
6.295	93.69	92.9659	5.6745
6.303	93.77	92.9648	5.6744
6.312	93.86	92.9638	5.6743
6.320	93.94	92.9631	5.6743
6.328	94.02	92.9624	5.6742
6.337	94.11	92.9611	5.6742
6.345	94.19	92.9600	5.6741
6.353	94.27	92.9591	5.6740
6.362	94.36	92.9581	5.6740
6.370	94.44	92.9570	5.6739
6.378	94.53	92.9561	5.6739
6.387	94.61	92.9552	5.6738
6.395	94.69	92.9541	5.6737
6.403	94.78	92.9530	5.6737
6.412	94.86	92.9522	5.6736
6.420	94.94	92.9513	5.6736
6.428	95.03	92.9503	5.6735
6.437	95.11	92.9494	5.6734
6.445	95.20	92.9483	5.6734
6.453	95.28	92.9472	5.6733
6.462	95.36	92.9461	5.6732
6.470	95.45	92.9451	5.6732
6.478	95.53	92.9440	5.6731
6.487	95.61	92.9430	5.6731
6.495	95.70	92.9419	5.6730
6.503	95.78	92.9409	5.6729
6.512	95.86	92.9400	5.6729
6.520	95.95	92.9390	5.6728
6.528	96.03	92.9381	5.6728
6.537	96.11	92.9372	5.6727
6.545	96.20	92.9363	5.6726
6.553	96.28	92.9352	5.6726
6.562	96.36	92.9343	5.6725
6.570	96.44	92.9335	5.6725
6.578	96.53	92.9328	5.6724
6.587	96.61	92.9319	5.6724
6.595	96.69	92.9309	5.6723
6.603	96.78	92.9299	5.6723
6.612	96.86	92.9293	5.6722
6.620	96.94	92.9285	5.6722
6.628	97.02	92.9274	5.6721
6.637	97.11	92.9265	5.6720
6.645	97.19	92.9258	5.6720
6.653	97.27	92.9250	5.6720
6.662	97.35	92.9241	5.6719
6.670	97.44	92.9233	5.6719
6.678	97.52	92.9223	5.6718
6.687	97.60	92.9214	5.6717
6.695	97.69	92.9205	5.6717
6.703	97.77	92.9196	5.6716
6.712	97.85	92.9189	5.6716
6.720	97.94	92.9182	5.6715
6.728	98.02	92.9174	5.6715
6.737	98.10	92.9165	5.6714
6.745	98.19	92.9157	5.6714
6.753	98.27	92.9148	5.6713
6.762	98.35	92.9139	5.6713
6.770	98.44	92.9130	5.6712
6.778	98.52	92.9122	5.6712
6.787	98.60	92.9114	5.6711
6.795	98.69	92.9105	5.6711
6.803	98.77	92.9098	5.6710
6.812	98.85	92.9088	5.6710
6.820	98.94	92.9080	5.6709
6.828	99.02	92.9072	5.6709
6.837	99.10	92.9063	5.6708
6.845	99.19	92.9055	5.6708
6.853	99.27	92.9049	5.6707
6.862	99.35	92.9043	5.6707
6.870	99.43	92.9035	5.6706
6.878	99.52	92.9026	5.6706
6.887	99.60	92.9022	5.6706
6.895	99.68	92.9016	5.6705
6.903	99.77	92.9004	5.6705
6.912	99.85	92.8993	5.6704
6.920	99.93	92.8984	5.6703
6.928	100.01	92.8977	5.6703
6.937	100.10	92.8968	5.6702
6.945	100.18	92.8961	5.6702
6.953	100.26	92.8953	5.6701
6.962	100.34	92.8947	5.6701
6.970	100.43	92.8940	5.6701
6.978	100.51	92.8931	5.6700
6.987	100.59	92.8926	5.6700
6.995	100.68	92.8921	5.6699
7.003	100.76	92.8912	5.6699
7.012	100.84	92.8903	5.6698
7.020	100.92	92.8895	5.6698
7.028	101.01	92.8888	5.6697
7.037	101.09	92.8882	5.6697
7.045	101.17	92.8872	5.6697
7.053	101.25	92.8862	5.6696
7.062	101.34	92.8855	5.6695
7.070	101.42	92.8849	5.6695
7.078	101.50	92.8842	5.6695
7.087	101.59	92.8837	5.6694
7.095	101.67	92.8830	5.6694
7.103	101.75	92.8821	5.6693
7.112	101.83	92.8814	5.6693
7.120	101.92	92.8807	5.6693
7.128	102.00	92.8801	5.6692
7.137	102.08	92.8795	5.6692
7.145	102.17	92.8789	5.6691
7.153	102.25	92.8783	5.6691
7.162	102.33	92.8775	5.6691
7.170	102.42	92.8768	5.6690
7.178	102.50	92.8762	5.6690
7.187	102.58	92.8755	5.6689
7.195	102.67	92.8749	5.6689
7.203	102.75	92.8742	5.6689
7.212	102.84	92.8735	5.6688
7.220	102.92	92.8729	5.6688
7.228	103.00	92.8724	5.6687
7.237	103.09	92.8719	5.6687
7.245	103.17	92.8713	5.6687
7.253	103.25	92.8707	5.6686
7.262	103.34	92.8700	5.6686
7.270	103.42	92.8693	5.6686
7.278	103.51	92.8687	5.6685
7.287	103.59	92.8681	5.6685
7.295	103.67	92.8675	5.6684
7.303	103.76	92.8670	5.6684
7.312	103.84	92.8665	5.6684
7.320	103.92	92.8660	5.6684
7.328	104.01	92.8651	5.6683
7.337	104.09	92.8643	5.6683
7.345	104.17	92.8637	5.6682
7.353	104.26	92.8630	5.6682
7.362	104.34	92.8625	5.6681
7.370	104.42	92.8620	5.6681
7.378	104.51	92.8615	5.6681
7.387	104.59	92.8609	5.6680
7.395	104.67	92.8602	5.6680
7.403	104.76	92.8597	5.6680
7.412	104.84	92.8590	5.6679
7.420	104.92	92.8585	5.6679
7.428	105.01	92.8582	5.6679
7.437	105.09	92.8577	5.6679
7.445	105.17	92.8571	5.6678
7.453	105.26	92.8564	5.6678
7.462	105.34	92.8557	5.6677
7.470	105.42	92.8553	5.6677
7.478	105.51	92.8548	5.6677
7.487	105.59	92.8542	5.6676
7.495	105.67	92.8536	5.6676
7.503	105.76	92.8531	5.6676

[step]
Isothermal 30.0 min
Time	Temperature	Weight	Weight
min	°C	%	mg
7.512	105.84	92.8528	5.6675
7.520	105.93	92.8522	5.6675
7.528	106.01	92.8516	5.6675
7.537	106.09	92.8511	5.6674
7.545	106.17	92.8505	5.6674
7.553	106.26	92.8498	5.6674
7.562	106.34	92.8490	5.6673
7.570	106.42	92.8484	5.6673
7.578	106.50	92.8477	5.6672
7.587	106.58	92.8471	5.6672
7.595	106.66	92.8466	5.6672
7.603	106.74	92.8458	5.6671
7.612	106.81	92.8450	5.6671
7.620	106.89	92.8443	5.6670
7.628	106.96	92.8437	5.6670
7.637	107.03	92.8431	5.6670
7.645	107.10	92.8424	5.6669
7.653	107.17	92.8418	5.6669
7.662	107.24	92.8411	5.6668
7.670	107.31	92.8403	5.6668
7.678	107.37	92.8395	5.6667
7.687	107.43	92.8389	5.6667
7.695	107.49	92.8382	5.6667
7.703	107.55	92.8375	5.6666
7.712	107.61	92.8368	5.6666
7.720	107.66	92.8361	5.6665
7.728	107.72	92.8354	5.6665
7.737	107.77	92.8347	5.6664
7.745	107.82	92.8339	5.6664
7.753	107.87	92.8332	5.6664
7.762	107.91	92.8325	5.6663
7.770	107.95	92.8317	5.6663
7.778	108.00	92.8310	5.6662
7.787	108.04	92.8303	5.6662
7.795	108.07	92.8296	5.6661
7.803	108.11	92.8289	5.6661
7.812	108.15	92.8284	5.6661
7.820	108.18	92.8280	5.6660
7.828	108.21	92.8277	5.6660
7.837	108.24	92.8271	5.6660
7.845	108.27	92.8265	5.6659
7.853	108.30	92.8262	5.6659
7.862	108.33	92.8257	5.6659
7.870	108.35	92.8253	5.6659
7.878	108.38	92.8249	5.6658
7.887	108.40	92.8245	5.6658
7.895	108.42	92.8241	5.6658
7.903	108.45	92.8236	5.6658
7.912	108.47	92.8231	5.6657
7.920	108.49	92.8225	5.6657
7.928	108.51	92.8221	5.6657
7.937	108.53	92.8218	5.6657
7.945	108.55	92.8214	5.6656
7.953	108.57	92.8211	5.6656
7.962	108.59	92.8208	5.6656
7.970	108.61	92.8205	5.6656
7.978	108.63	92.8201	5.6656
7.987	108.64	92.8198	5.6655
7.995	108.66	92.8195	5.6655
8.003	108.68	92.8192	5.6655
8.012	108.70	92.8190	5.6655
8.020	108.71	92.8188	5.6655
8.028	108.73	92.8185	5.6655
8.037	108.75	92.8182	5.6654
8.045	108.76	92.8179	5.6654
8.053	108.78	92.8178	5.6654
8.062	108.79	92.8176	5.6654
8.070	108.81	92.8173	5.6654
8.078	108.82	92.8171	5.6654
8.087	108.84	92.8167	5.6653
8.095	108.85	92.8163	5.6653
8.103	108.87	92.8163	5.6653
8.112	108.88	92.8161	5.6653
8.120	108.89	92.8157	5.6653
8.128	108.91	92.8154	5.6653
8.137	108.92	92.8150	5.6652
8.145	108.94	92.8147	5.6652
8.153	108.95	92.8143	5.6652
8.162	108.96	92.8139	5.6652
8.170	108.97	92.8137	5.6652
8.178	108.99	92.8134	5.6651
8.187	109.00	92.8131	5.6651
8.195	109.01	92.8131	5.6651
8.203	109.02	92.8133	5.6651
8.212	109.03	92.8134	5.6651
8.220	109.05	92.8130	5.6651
8.228	109.06	92.8125	5.6651
8.237	109.07	92.8122	5.6651
8.245	109.08	92.8118	5.6651
8.253	109.09	92.8116	5.6650
8.262	109.10	92.8113	5.6650
8.270	109.11	92.8110	5.6650
8.278	109.12	92.8107	5.6650
8.287	109.13	92.8104	5.6650
8.295	109.14	92.8103	5.6650
8.303	109.15	92.8101	5.6649
8.312	109.16	92.8098	5.6649
8.320	109.17	92.8096	5.6649
8.328	109.18	92.8093	5.6649
8.337	109.19	92.8091	5.6649
8.345	109.20	92.8090	5.6649
8.353	109.21	92.8088	5.6649
8.362	109.21	92.8088	5.6649
8.370	109.22	92.8088	5.6649
8.378	109.23	92.8085	5.6648
8.387	109.24	92.8081	5.6648
8.395	109.25	92.8079	5.6648
8.403	109.25	92.8077	5.6648
8.412	109.26	92.8074	5.6648
8.420	109.27	92.8071	5.6648
8.428	109.28	92.8070	5.6648
8.437	109.28	92.8067	5.6647
8.445	109.29	92.8062	5.6647
8.453	109.29	92.8060	5.6647
8.462	109.30	92.8060	5.6647
8.470	109.31	92.8056	5.6647
8.478	109.31	92.8052	5.6646
8.487	109.32	92.8049	5.6646
8.495	109.32	92.8046	5.6646
8.503	109.33	92.8045	5.6646
8.512	109.33	92.8043	5.6646
8.520	109.34	92.8041	5.6646
8.528	109.35	92.8039	5.6646
8.537	109.35	92.8038	5.6646
8.545	109.35	92.8035	5.6645
8.553	109.36	92.8033	5.6645
8.562	109.36	92.8031	5.6645
8.570	109.37	92.8028	5.6645
8.578	109.37	92.8026	5.6645
8.587	109.38	92.8025	5.6645
8.595	109.38	92.8023	5.6645
8.603	109.38	92.8020	5.6645
8.612	109.39	92.8017	5.6644
8.620	109.39	92.8016	5.6644
8.628	109.40	92.8015	5.6644
8.637	109.40	92.8013	5.6644
8.645	109.40	92.8011	5.6644
8.653	109.41	92.8009	5.6644
8.662	109.41	92.8006	5.6644
8.670	109.41	92.8005	5.6644
8.678	109.42	92.8005	5.6644
8.687	109.42	92.8004	5.6644
8.695	109.42	92.8002	5.6643
8.703	109.43	92.8000	5.6643
8.712	109.43	92.7998	5.6643
8.720	109.43	92.7998	5.6643
8.728	109.44	92.7998	5.6643
8.737	109.44	92.7996	5.6643
8.745	109.44	92.7993	5.6643
8.753	109.45	92.7991	5.6643
8.762	109.45	92.7989	5.6643
8.770	109.45	92.7987	5.6642
8.778	109.46	92.7988	5.6643
8.787	109.46	92.7987	5.6642
8.795	109.46	92.7984	5.6642
8.803	109.46	92.7982	5.6642
8.812	109.47	92.7982	5.6642
8.820	109.47	92.7981	5.6642
8.828	109.47	92.7979	5.6642
8.837	109.47	92.7977	5.6642
8.845	109.47	92.7976	5.6642
8.853	109.48	92.7973	5.6642
8.862	109.48	92.7971	5.6642
8.870	109.48	92.7970	5.6641
8.878	109.48	92.7968	5.6641
8.887	109.48	92.7967	5.6641
8.895	109.49	92.7966	5.6641
8.903	109.49	92.7963	5.6641
8.912	109.49	92.7963	5.6641
8.920	109.49	92.7964	5.6641
8.928	109.49	92.7965	5.6641
8.937	109.49	92.7966	5.6641
8.945	109.50	92.7965	5.6641
8.953	109.50	92.7963	5.6641
8.962	109.50	92.7960	5.6641
8.970	109.50	92.7956	5.6641
8.978	109.50	92.7954	5.6640
8.987	109.50	92.7952	5.6640
8.995	109.51	92.7951	5.6640
9.003	109.51	92.7949	5.6640
9.012	109.51	92.7949	5.6640
9.020	109.51	92.7948	5.6640
9.028	109.51	92.7946	5.6640
9.037	109.51	92.7943	5.6640
9.045	109.52	92.7941	5.6640
9.053	109.52	92.7942	5.6640
9.062	109.52	92.7941	5.6640
9.070	109.52	92.7940	5.6640
9.078	109.52	92.7939	5.6640
9.087	109.52	92.7939	5.6640
9.095	109.53	92.7939	5.6640
9.103	109.53	92.7937	5.6639
9.112	109.53	92.7935	5.6639
9.120	109.53	92.7933	5.6639
9.128	109.53	92.7932	5.6639
9.137	109.53	92.7930	5.6639
9.145	109.53	92.7929	5.6639
9.153	109.54	92.7927	5.6639
9.162	109.54	92.7926	5.6639
9.170	109.54	92.7927	5.6639
9.178	109.54	92.7926	5.6639
9.187	109.54	92.7923	5.6639
9.195	109.54	92.7922	5.6639
9.203	109.54	92.7922	5.6639
9.212	109.54	92.7922	5.6639
9.220	109.55	92.7920	5.6638
9.228	109.55	92.7918	5.6638
9.237	109.55	92.7918	5.6638
9.245	109.55	92.7918	5.6638
9.253	109.55	92.7919	5.6638
9.262	109.55	92.7919	5.6638
9.270	109.55	92.7918	5.6638
9.278	109.55	92.7918	5.6638
9.287	109.55	92.7917	5.6638
9.295	109.55	92.7915	5.6638
9.303	109.55	92.7913	5.6638
9.312	109.55	92.7912	5.6638
9.320	109.55	92.7912	5.6638
9.328	109.56	92.7910	5.6638
9.337	109.56	92.7909	5.6638
9.345	109.56	92.7907	5.6638
9.353	109.56	92.7904	5.6637
9.362	109.56	92.7902	5.6637
9.370	109.56	92.7904	5.6637
9.378	109.56	92.7904	5.6637
9.387	109.56	92.7904	5.6637
9.395	109.56	92.7903	5.6637
9.403	109.56	92.7901	5.6637
9.412	109.56	92.7901	5.6637
9.420	109.56	92.7901	5.6637
9.428	109.56	92.7902	5.6637
9.437	109.56	92.7901	5.6637
9.445	109.56	92.7901	5.6637
9.453	109.56	92.7902	5.6637
9.462	109.57	92.7901	5.6637
9.470	109.57	92.7899	5.6637
9.478	109.57	92.7900	5.6637
9.487	109.57	92.7898	5.6637
9.495	109.57	92.7897	5.6637
9.503	109.57	92.7896	5.6637
9.512	109.57	92.7894	5.6637
9.520	109.57	92.7892	5.6637
9.528	109.57	92.7891	5.6637
9.537	109.57	92.7889	5.6637
9.545	109.57	92.7888	5.6636
9.553	109.57	92.7888	5.6636
9.562	109.58	92.7888	5.6636
9.570	109.58	92.7887	5.6636
9.578	109.58	92.7886	5.6636
9.587	109.58	92.7886	5.6636
9.595	109.58	92.7885	5.6636
9.603	109.58	92.7883	5.6636
9.612	109.58	92.7883	5.6636
9.620	109.58	92.7884	5.6636
9.628	109.58	92.7885	5.6636
9.637	109.58	92.7883	5.6636
9.645	109.58	92.7880	5.6636
9.653	109.59	92.7879	5.6636
9.662	109.59	92.7878	5.6636
9.670	109.59	92.7877	5.6636
9.678	109.59	92.7876	5.6636
9.687	109.59	92.7877	5.6636
9.695	109.59	92.7878	5.6636
9.703	109.59	92.7878	5.6636
9.712	109.59	92.7878	5.6636
9.720	109.59	92.7877	5.6636
9.728	109.60	92.7876	5.6636
9.737	109.60	92.7878	5.6636
9.745	109.60	92.7878	5.6636
9.753	109.60	92.7877	5.6636
9.762	109.60	92.7876	5.6636
9.770	109.60	92.7876	5.6636
9.778	109.61	92.7875	5.6636
9.787	109.61	92.7873	5.6636
9.795	109.61	92.7872	5.6635
9.803	109.61	92.7870	5.6635
9.812	109.61	92.7869	5.6635
9.820	109.61	92.7868	5.6635
9.828	109.61	92.7868	5.6635
9.837	109.62	92.7870	5.6635
9.845	109.62	92.7871	5.6635
9.853	109.62	92.7871	5.6635
9.862	109.62	92.7869	5.6635
9.870	109.62	92.7870	5.6635
9.878	109.62	92.7872	5.6635
9.887	109.62	92.7869	5.6635
9.895	109.63	92.7869	5.6635
9.903	109.63	92.7868	5.6635
9.912	109.63	92.7863	5.6635
9.920	109.63	92.7860	5.6635
9.928	109.63	92.7859	5.6635
9.937	109.63	92.7860	5.6635
9.945	109.63	92.7860	5.6635
9.953	109.63	92.7857	5.6635
9.962	109.63	92.7854	5.6634
9.970	109.63	92.7854	5.6634
9.978	109.64	92.7854	5.6634
9.987	109.64	92.7855	5.6634
9.995	109.64	92.7854	5.6634
10.003	109.64	92.7852	5.6634
10.012	109.64	92.7851	5.6634
10.020	109.64	92.7851	5.6634
10.028	109.64	92.7851	5.6634
10.037	109.64	92.7852	5.6634
10.045	109.64	92.7852	5.6634
10.053	109.64	92.7852	5.6634
10.062	109.65	92.7850	5.6634
10.070	109.65	92.7851	5.6634
10.078	109.65	92.7851	5.6634
10.087	109.65	92.7850	5.6634
10.095	109.65	92.7849	5.6634
10.103	109.65	92.7849	5.6634
10.112	109.65	92.7851	5.6634
10.120	109.65	92.7847	5.6634
10.128	109.65	92.7845	5.6634
10.137	109.65	92.7845	5.6634
10.145	109.66	92.7845	5.6634
10.153	109.66	92.7846	5.6634
10.162	109.66	92.7845	5.6634
10.170	109.66	92.7846	5.6634
10.178	109.66	92.7848	5.6634
10.187	109.66	92.7847	5.6634
10.195	109.66	92.7847	5.6634
10.203	109.66	92.7848	5.6634
10.212	109.66	92.7847	5.6634
10.220	109.67	92.7847	5.6634
10.228	109.67	92.7846	5.6634
10.237	109.67	92.7849	5.6634
10.245	109.67	92.7847	5.6634
10.253	109.67	92.7840	5.6634
10.262	109.67	92.7837	5.6633
10.270	109.67	92.7834	5.6633
10.278	109.67	92.7834	5.6633
10.287	109.68	92.7833	5.6633
10.295	109.68	92.7833	5.6633
10.303	109.68	92.7834	5.6633
10.312	109.68	92.7833	5.6633
10.320	109.68	92.7832	5.6633
10.328	109.68	92.7832	5.6633
10.337	109.68	92.7834	5.6633
10.345	109.68	92.7841	5.6634
10.353	109.69	92.7844	5.6634
10.362	109.69	92.7844	5.6634
10.370	109.69	92.7845	5.6634
10.378	109.69	92.7845	5.6634
10.387	109.69	92.7844	5.6634
10.395	109.69	92.7843	5.6634
10.403	109.69	92.7842	5.6634
10.412	109.69	92.7842	5.6634
10.420	109.70	92.7843	5.6634
10.428	109.70	92.7842	5.6634
10.437	109.70	92.7841	5.6634
10.445	109.70	92.7843	5.6634
10.453	109.70	92.7846	5.6634
10.462	109.70	92.7845	5.6634
10.470	109.70	92.7844	5.6634
10.478	109.70	92.7843	5.6634
10.487	109.70	92.7842	5.6634
10.495	109.70	92.7843	5.6634
10.503	109.71	92.7842	5.6634
10.512	109.71	92.7840	5.6634
10.520	109.71	92.7839	5.6633
10.528	109.71	92.7840	5.6634
10.537	109.71	92.7838	5.6633
10.545	109.71	92.7835	5.6633
10.553	109.71	92.7834	5.6633
10.562	109.71	92.7834	5.6633
10.570	109.71	92.7836	5.6633
10.578	109.71	92.7837	5.6633
10.587	109.71	92.7834	5.6633
10.595	109.72	92.7832	5.6633
10.603	109.72	92.7832	5.6633
10.612	109.72	92.7831	5.6633
10.620	109.72	92.7833	5.6633
10.628	109.72	92.7833	5.6633
10.637	109.72	92.7833	5.6633
10.645	109.72	92.7832	5.6633
10.653	109.72	92.7832	5.6633
10.662	109.72	92.7830	5.6633
10.670	109.72	92.7829	5.6633
10.678	109.72	92.7829	5.6633
10.687	109.72	92.7829	5.6633
10.695	109.72	92.7827	5.6633
10.703	109.72	92.7825	5.6633
10.712	109.73	92.7826	5.6633
10.720	109.73	92.7827	5.6633
10.728	109.73	92.7826	5.6633
10.737	109.73	92.7823	5.6633
10.745	109.73	92.7822	5.6632
10.753	109.73	92.7824	5.6633
10.762	109.73	92.7824	5.6633
10.770	109.73	92.7825	5.6633
10.778	109.73	92.7825	5.6633
10.787	109.73	92.7825	5.6633
10.795	109.74	92.7824	5.6633
10.803	109.74	92.7823	5.6632
10.812	109.74	92.7822	5.6632
10.820	109.74	92.7821	5.6632
10.828	109.74	92.7821	5.6632
10.837	109.74	92.7821	5.6632
10.845	109.74	92.7821	5.6632
10.853	109.75	92.7822	5.6632
10.862	109.75	92.7822	5.6632
10.870	109.75	92.7823	5.6632
10.878	109.75	92.7825	5.6633
10.887	109.75	92.7826	5.6633
10.895	109.76	92.7825	5.6633
10.903	109.76	92.7824	5.6633
10.912	109.76	92.7823	5.6633
10.920	109.76	92.7821	5.6632
10.928	109.76	92.7820	5.6632
10.937	109.76	92.7818	5.6632
10.945	109.77	92.7817	5.6632
10.953	109.77	92.7817	5.6632
10.962	109.77	92.7816	5.6632
10.970	109.77	92.7816	5.6632
10.978	109.77	92.7816	5.6632
10.987	109.78	92.7815	5.6632
10.995	109.78	92.7814	5.6632
11.003	109.78	92.7814	5.6632
11.012	109.78	92.7814	5.6632
11.020	109.78	92.7812	5.6632
11.028	109.78	92.7811	5.6632
11.037	109.78	92.7811	5.6632
11.045	109.79	92.7811	5.6632
11.053	109.79	92.7812	5.6632
11.062	109.79	92.7811	5.6632
11.070	109.79	92.7810	5.6632
11.078	109.79	92.7810	5.6632
11.087	109.79	92.7809	5.6632
11.095	109.79	92.7810	5.6632
11.103	109.79	92.7810	5.6632
11.112	109.79	92.7811	5.6632
11.120	109.80	92.7810	5.6632
11.128	109.80	92.7810	5.6632
11.137	109.80	92.7809	5.6632
11.145	109.80	92.7809	5.6632
11.153	109.80	92.7808	5.6632
11.162	109.80	92.7810	5.6632
11.170	109.80	92.7813	5.6632
11.178	109.80	92.7813	5.6632
11.187	109.80	92.7813	5.6632
11.195	109.80	92.7813	5.6632
11.203	109.80	92.7811	5.6632
11.212	109.80	92.7812	5.6632
11.220	109.80	92.7813	5.6632
11.228	109.80	92.7814	5.6632
11.237	109.80	92.7814	5.6632
11.245	109.80	92.7811	5.6632
11.253	109.80	92.7809	5.6632
11.262	109.80	92.7808	5.6632
11.270	109.80	92.7808	5.6632
11.278	109.80	92.7809	5.6632
11.287	109.80	92.7809	5.6632
11.295	109.81	92.7808	5.6632
11.303	109.81	92.7805	5.6631
11.312	109.81	92.7804	5.6631
11.320	109.81	92.7807	5.6631
11.328	109.81	92.7807	5.6631
11.337	109.81	92.7807	5.6631
11.345	109.81	92.7806	5.6631
11.353	109.81	92.7806	5.6631
11.362	109.81	92.7806	5.6631
11.370	109.81	92.7806	5.6631
11.378	109.81	92.7804	5.6631
11.387	109.81	92.7805	5.6631
11.395	109.81	92.7804	5.6631
11.403	109.81	92.7802	5.6631
11.412	109.81	92.7803	5.6631
11.420	109.81	92.7803	5.6631
11.428	109.81	92.7803	5.6631
11.437	109.81	92.7804	5.6631
11.445	109.81	92.7805	5.6631
11.453	109.81	92.7804	5.6631
11.462	109.81	92.7802	5.6631
11.470	109.81	92.7801	5.6631
11.478	109.81	92.7800	5.6631
11.487	109.81	92.7801	5.6631
11.495	109.81	92.7801	5.6631
11.503	109.81	92.7800	5.6631
11.512	109.81	92.7800	5.6631
11.520	109.81	92.7800	5.6631
11.528	109.81	92.7799	5.6631
11.537	109.81	92.7800	5.6631
11.545	109.82	92.7801	5.6631
11.553	109.82	92.7801	5.6631
11.562	109.82	92.7800	5.6631
11.570	109.82	92.7799	5.6631
11.578	109.82	92.7799	5.6631
11.587	109.82	92.7798	5.6631
11.595	109.82	92.7798	5.6631
11.603	109.82	92.7798	5.6631
11.612	109.82	92.7797	5.6631
11.620	109.82	92.7798	5.6631
11.628	109.82	92.7799	5.6631
11.637	109.82	92.7799	5.6631
11.645	109.83	92.7800	5.6631
11.653	109.83	92.7800	5.6631
11.662	109.83	92.7800	5.6631
11.670	109.83	92.7799	5.6631
11.678	109.83	92.7797	5.6631
11.687	109.83	92.7797	5.6631
11.695	109.83	92.7797	5.6631
11.703	109.83	92.7797	5.6631
11.712	109.83	92.7797	5.6631
11.720	109.83	92.7796	5.6631
11.728	109.83	92.7796	5.6631
11.737	109.83	92.7797	5.6631
11.745	109.83	92.7798	5.6631
11.753	109.84	92.7797	5.6631
11.762	109.84	92.7798	5.6631
11.770	109.84	92.7799	5.6631
11.778	109.84	92.7797	5.6631
11.787	109.84	92.7796	5.6631
11.795	109.84	92.7797	5.6631
11.803	109.84	92.7796	5.6631
11.812	109.84	92.7795	5.6631
11.820	109.84	92.7794	5.6631
11.828	109.84	92.7796	5.6631
11.837	109.84	92.7798	5.6631
11.845	109.84	92.7796	5.6631
11.853	109.84	92.7794	5.6631
11.862	109.84	92.7794	5.6631
11.870	109.84	92.7793	5.6631
11.878	109.84	92.7793	5.6631
11.887	109.84	92.7792	5.6631
11.895	109.84	92.7792	5.6631
11.903	109.84	92.7792	5.6631
11.912	109.84	92.7792	5.6631
11.920	109.84	92.7793	5.6631
11.928	109.84	92.7792	5.6631
11.937	109.84	92.7793	5.6631
11.945	109.84	92.7794	5.6631
11.953	109.84	92.7792	5.6631
11.962	109.84	92.7791	5.6631
11.970	109.84	92.7791	5.6631
11.978	109.85	92.7791	5.6631
11.987	109.85	92.7792	5.6631
11.995	109.85	92.7791	5.6631
12.003	109.85	92.7789	5.6630
12.012	109.85	92.7790	5.6630
12.020	109.85	92.7789	5.6630
12.028	109.85	92.7787	5.6630
12.037	109.85	92.7785	5.6630
12.045	109.85	92.7785	5.6630
12.053	109.85	92.7785	5.6630
12.062	109.85	92.7785	5.6630
12.070	109.85	92.7784	5.6630
12.078	109.85	92.7785	5.6630
12.087	109.85	92.7787	5.6630
12.095	109.85	92.7786	5.6630
12.103	109.85	92.7787	5.6630
12.112	109.85	92.7787	5.6630
12.120	109.85	92.7785	5.6630
12.128	109.85	92.7786	5.6630
12.137	109.85	92.7787	5.6630
12.145	109.85	92.7787	5.6630
12.153	109.85	92.7788	5.6630
12.162	109.85	92.7787	5.6630
12.170	109.85	92.7787	5.6630
12.178	109.85	92.7787	5.6630
12.187	109.86	92.7787	5.6630
12.195	109.86	92.7786	5.6630
12.203	109.86	92.7784	5.6630
12.212	109.86	92.7783	5.6630
12.220	109.86	92.7785	5.6630
12.228	109.86	92.7784	5.6630
12.237	109.86	92.7783	5.6630
12.245	109.86	92.7782	5.6630
12.253	109.86	92.7783	5.6630
12.262	109.86	92.7783	5.6630
12.270	109.86	92.7783	5.6630
12.278	109.86	92.7781	5.6630
12.287	109.86	92.7779	5.6630
12.295	109.86	92.7778	5.6630
12.303	109.86	92.7780	5.6630
12.312	109.86	92.7782	5.6630
12.320	109.86	92.7781	5.6630
12.328	109.86	92.7781	5.6630
12.337	109.86	92.7780	5.6630
12.345	109.86	92.7781	5.6630
12.353	109.86	92.7783	5.6630
12.362	109.86	92.7782	5.6630
12.370	109.86	92.7780	5.6630
12.378	109.86	92.7780	5.6630
12.387	109.86	92.7780	5.6630
12.395	109.86	92.7780	5.6630
12.403	109.86	92.7779	5.6630
12.412	109.86	92.7779	5.6630
12.420	109.86	92.7779	5.6630
12.428	109.86	92.7779	5.6630
12.437	109.86	92.7778	5.6630
12.445	109.86	92.7778	5.6630
12.453	109.87	92.7778	5.6630
12.462	109.87	92.7779	5.6630
12.470	109.87	92.7778	5.6630
12.478	109.87	92.7777	5.6630
12.487	109.87	92.7777	5.6630
12.495	109.87	92.7778	5.6630
12.503	109.87	92.7777	5.6630
12.512	109.87	92.7776	5.6630
12.520	109.87	92.7776	5.6630
12.528	109.87	92.7775	5.6630
12.537	109.87	92.7775	5.6630
12.545	109.87	92.7774	5.6630
12.553	109.87	92.7774	5.6629
12.562	109.87	92.7774	5.6629
12.570	109.87	92.7774	5.6629
12.578	109.87	92.7773	5.6629
12.587	109.87	92.7774	5.6630
12.595	109.87	92.7774	5.6629
12.603	109.87	92.7772	5.6629
12.612	109.87	92.7773	5.6629
12.620	109.87	92.7772	5.6629
12.628	109.87	92.7772	5.6629
12.637	109.88	92.7773	5.6629
12.645	109.88	92.7773	5.6629
12.653	109.88	92.7772	5.6629
12.662	109.88	92.7771	5.6629
12.670	109.88	92.7772	5.6629
12.678	109.88	92.7773	5.6629
12.687	109.88	92.7771	5.6629
12.695	109.88	92.7773	5.6629
12.703	109.88	92.7774	5.6629
12.712	109.88	92.7772	5.6629
12.720	109.88	92.7771	5.6629
12.728	109.88	92.7770	5.6629
12.737	109.88	92.7771	5.6629
12.745	109.88	92.7771	5.6629
12.753	109.88	92.7770	5.6629
12.762	109.88	92.7770	5.6629
12.770	109.88	92.7771	5.6629
12.778	109.88	92.7772	5.6629
12.787	109.88	92.7771	5.6629
12.795	109.88	92.7771	5.6629
12.803	109.88	92.7771	5.6629
12.812	109.88	92.7772	5.6629
12.820	109.88	92.7773	5.6629
12.828	109.88	92.7771	5.6629
12.837	109.88	92.7770	5.6629
12.845	109.88	92.7772	5.6629
12.853	109.88	92.7773	5.6629
12.862	109.88	92.7773	5.6629
12.870	109.88	92.7773	5.6629
12.878	109.88	92.7771	5.6629
12.887	109.88	92.7769	5.6629
12.895	109.88	92.7771	5.6629
12.903	109.88	92.7775	5.6630
12.912	109.88	92.7773	5.6629
12.920	109.88	92.7772	5.6629
12.928	109.89	92.7772	5.6629
12.937	109.89	92.7775	5.6630
12.945	109.89	92.7776	5.6630
12.953	109.89	92.7776	5.6630
12.962	109.89	92.7776	5.6630
12.970	109.89	92.7776	5.6630
12.978	109.89	92.7774	5.6630
12.987	109.89	92.7773	5.6629
12.995	109.89	92.7773	5.6629
13.003	109.89	92.7774	5.6629
13.012	109.89	92.7775	5.6630
13.020	109.89	92.7773	5.6629
13.028	109.89	92.7772	5.6629
13.037	109.89	92.7774	5.6629
13.045	109.89	92.7775	5.6630
13.053	109.89	92.7774	5.6629
13.062	109.89	92.7774	5.6629
13.070	109.89	92.7774	5.6630
13.078	109.90	92.7773	5.6629
13.087	109.90	92.7776	5.6630
13.095	109.90	92.7777	5.6630
13.103	109.90	92.7775	5.6630
13.112	109.90	92.7775	5.6630
13.120	109.90	92.7776	5.6630
13.128	109.90	92.7773	5.6629
13.137	109.90	92.7771	5.6629
13.145	109.90	92.7773	5.6629
13.153	109.90	92.7775	5.6630
13.162	109.90	92.7775	5.6630
13.170	109.90	92.7773	5.6629
13.178	109.90	92.7771	5.6629
13.187	109.90	92.7771	5.6629
13.195	109.90	92.7771	5.6629
13.203	109.90	92.7770	5.6629
13.212	109.90	92.7769	5.6629
13.220	109.90	92.7768	5.6629
13.228	109.90	92.7767	5.6629
13.237	109.90	92.7767	5.6629
13.245	109.90	92.7769	5.6629
13.253	109.90	92.7769	5.6629
13.262	109.90	92.7768	5.6629
13.270	109.91	92.7767	5.6629
13.278	109.91	92.7766	5.6629
13.287	109.91	92.7766	5.6629
13.295	109.91	92.7767	5.6629
13.303	109.91	92.7766	5.6629
13.312	109.91	92.7768	5.6629
13.320	109.91	92.7769	5.6629
13.328	109.91	92.7769	5.6629
13.337	109.91	92.7769	5.6629
13.345	109.91	92.7768	5.6629
13.353	109.91	92.7768	5.6629
13.362	109.91	92.7769	5.6629
13.370	109.91	92.7768	5.6629
13.378	109.91	92.7766	5.6629
13.387	109.91	92.7765	5.6629
13.395	109.91	92.7767	5.6629
13.403	109.91	92.7769	5.6629
13.412	109.91	92.7769	5.6629
13.420	109.91	92.7768	5.6629
13.428	109.92	92.7768	5.6629
13.437	109.92	92.7766	5.6629
13.445	109.92	92.7765	5.6629
13.453	109.92	92.7765	5.6629
13.462	109.92	92.7763	5.6629
13.470	109.92	92.7763	5.6629
13.478	109.92	92.7762	5.6629
13.487	109.92	92.7761	5.6629
13.495	109.92	92.7762	5.6629
13.503	109.92	92.7764	5.6629
13.512	109.92	92.7766	5.6629
13.520	109.92	92.7766	5.6629
13.528	109.92	92.7769	5.6629
13.537	109.92	92.7769	5.6629
13.545	109.92	92.7770	5.6629
13.553	109.93	92.7769	5.6629
13.562	109.93	92.7769	5.6629
13.570	109.93	92.7768	5.6629
13.578	109.93	92.7769	5.6629
13.587	109.93	92.7771	5.6629
13.595	109.93	92.7774	5.6629
13.603	109.93	92.7776	5.6630
13.612	109.93	92.7777	5.6630
13.620	109.93	92.7776	5.6630
13.628	109.93	92.7773	5.6629
13.637	109.93	92.7773	5.6629
13.645	109.93	92.7775	5.6630
13.653	109.93	92.7776	5.6630
13.662	109.93	92.7776	5.6630
13.670	109.93	92.7775	5.6630
13.678	109.93	92.7775	5.6630
13.687	109.93	92.7774	5.6629
13.695	109.93	92.7774	5.6630
13.703	109.93	92.7773	5.6629
13.712	109.93	92.7773	5.6629
13.720	109.93	92.7774	5.6629
13.728	109.93	92.7774	5.6629
13.737	109.93	92.7774	5.6629
13.745	109.93	92.7772	5.6629
13.753	109.93	92.7771	5.6629
13.762	109.93	92.7770	5.6629
13.770	109.93	92.7768	5.6629
13.778	109.93	92.7767	5.6629
13.787	109.93	92.7768	5.6629
13.795	109.92	92.7769	5.6629
13.803	109.92	92.7769	5.6629
13.812	109.92	92.7769	5.6629
13.820	109.92	92.7769	5.6629
13.828	109.92	92.7769	5.6629
13.837	109.92	92.7769	5.6629
13.845	109.92	92.7772	5.6629
13.853	109.92	92.7774	5.6629
13.862	109.92	92.7772	5.6629
13.870	109.92	92.7768	5.6629
13.878	109.92	92.7767	5.6629
13.887	109.93	92.7767	5.6629
13.895	109.93	92.7766	5.6629
13.903	109.93	92.7765	5.6629
13.912	109.93	92.7765	5.6629
13.920	109.93	92.7765	5.6629
13.928	109.93	92.7767	5.6629
13.937	109.93	92.7767	5.6629
13.945	109.93	92.7766	5.6629
13.953	109.93	92.7766	5.6629
13.962	109.93	92.7767	5.6629
13.970	109.93	92.7768	5.6629
13.978	109.93	92.7767	5.6629
13.987	109.93	92.7767	5.6629
13.995	109.93	92.7768	5.6629
14.003	109.93	92.7768	5.6629
14.012	109.93	92.7769	5.6629
14.020	109.93	92.7769	5.6629
14.028	109.93	92.7769	5.6629
14.037	109.94	92.7770	5.6629
14.045	109.94	92.7769	5.6629
14.053	109.94	92.7769	5.6629
14.062	109.94	92.7769	5.6629
14.070	109.94	92.7767	5.6629
14.078	109.94	92.7765	5.6629
14.087	109.94	92.7766	5.6629
14.095	109.94	92.7765	5.6629
14.103	109.94	92.7765	5.6629
14.112	109.94	92.7767	5.6629
14.120	109.94	92.7767	5.6629
14.128	109.94	92.7765	5.6629
14.137	109.94	92.7765	5.6629
14.145	109.94	92.7765	5.6629
14.153	109.94	92.7764	5.6629
14.162	109.94	92.7764	5.6629
14.170	109.94	92.7765	5.6629
14.178	109.94	92.7765	5.6629
14.187	109.94	92.7765	5.6629
14.195	109.94	92.7764	5.6629
14.203	109.94	92.7764	5.6629
14.212	109.94	92.7764	5.6629
14.220	109.94	92.7764	5.6629
14.228	109.95	92.7765	5.6629
14.237	109.95	92.7765	5.6629
14.245	109.95	92.7765	5.6629
14.253	109.95	92.7765	5.6629
14.262	109.95	92.7765	5.6629
14.270	109.95	92.7766	5.6629
14.278	109.95	92.7766	5.6629
14.287	109.95	92.7766	5.6629
14.295	109.95	92.7766	5.6629
14.303	109.95	92.7764	5.6629
14.312	109.95	92.7764	5.6629
14.320	109.95	92.7765	5.6629
14.328	109.95	92.7766	5.6629
14.337	109.95	92.7766	5.6629
14.345	109.95	92.7764	5.6629
14.353	109.95	92.7764	5.6629
14.362	109.95	92.7764	5.6629
14.370	109.95	92.7764	5.6629
14.378	109.95	92.7764	5.6629
14.387	109.95	92.7764	5.6629
14.395	109.95	92.7764	5.6629
14.403	109.95	92.7764	5.6629
14.412	109.95	92.7765	5.6629
14.420	109.95	92.7763	5.6629
14.428	109.95	92.7763	5.6629
14.437	109.95	92.7762	5.6629
14.445	109.95	92.7760	5.6629
14.453	109.95	92.7760	5.6629
14.462	109.95	92.7760	5.6629
14.470	109.95	92.7760	5.6629
14.478	109.95	92.7758	5.6629
14.487	109.95	92.7757	5.6628
14.495	109.95	92.7758	5.6628
14.503	109.95	92.7758	5.6629
14.512	109.95	92.7759	5.6629
14.520	109.95	92.7760	5.6629
14.528	109.95	92.7760	5.6629
14.537	109.95	92.7759	5.6629
14.545	109.95	92.7758	5.6629
14.553	109.95	92.7758	5.6629
14.562	109.95	92.7758	5.6629
14.570	109.95	92.7757	5.6628
14.578	109.95	92.7755	5.6628
14.587	109.95	92.7755	5.6628
14.595	109.95	92.7755	5.6628
14.603	109.95	92.7756	5.6628
14.612	109.95	92.7757	5.6628
14.620	109.95	92.7757	5.6628
14.628	109.95	92.7758	5.6629
14.637	109.95	92.7757	5.6628
14.645	109.95	92.7757	5.6628
14.653	109.95	92.7756	5.6628
14.662	109.95	92.7757	5.6628
14.670	109.95	92.7756	5.6628
14.678	109.95	92.7755	5.6628
14.687	109.95	92.7756	5.6628
14.695	109.95	92.7755	5.6628
14.703	109.95	92.7753	5.6628
14.712	109.95	92.7754	5.6628
14.720	109.95	92.7754	5.6628
14.728	109.95	92.7754	5.6628
14.737	109.95	92.7754	5.6628
14.745	109.95	92.7755	5.6628
14.753	109.95	92.7757	5.6628
14.762	109.95	92.7755	5.6628
14.770	109.95	92.7753	5.6628
14.778	109.95	92.7752	5.6628
14.787	109.96	92.7752	5.6628
14.795	109.96	92.7754	5.6628
14.803	109.96	92.7755	5.6628
14.812	109.96	92.7755	5.6628
14.820	109.96	92.7756	5.6628
14.828	109.96	92.7757	5.6628
14.837	109.96	92.7757	5.6628
14.845	109.96	92.7757	5.6628
14.853	109.96	92.7758	5.6629
14.862	109.96	92.7758	5.6629
14.870	109.96	92.7760	5.6629
14.878	109.96	92.7759	5.6629
14.887	109.96	92.7757	5.6628
14.895	109.96	92.7757	5.6628
14.903	109.96	92.7760	5.6629
14.912	109.96	92.7760	5.6629
14.920	109.96	92.7760	5.6629
14.928	109.96	92.7758	5.6629
14.937	109.96	92.7759	5.6629
14.945	109.96	92.7759	5.6629
14.953	109.96	92.7761	5.6629
14.962	109.96	92.7762	5.6629
14.970	109.96	92.7760	5.6629
14.978	109.96	92.7758	5.6629
14.987	109.96	92.7759	5.6629
14.995	109.96	92.7761	5.6629
15.003	109.96	92.7762	5.6629
15.012	109.96	92.7762	5.6629
15.020	109.96	92.7762	5.6629
15.028	109.96	92.7762	5.6629
15.037	109.96	92.7762	5.6629
15.045	109.96	92.7762	5.6629
15.053	109.96	92.7762	5.6629
15.062	109.96	92.7762	5.6629
15.070	109.96	92.7761	5.6629
15.078	109.96	92.7761	5.6629
15.087	109.96	92.7762	5.6629
15.095	109.96	92.7763	5.6629
15.103	109.96	92.7762	5.6629
15.112	109.96	92.7761	5.6629
15.120	109.96	92.7760	5.6629
15.128	109.96	92.7761	5.6629
15.137	109.96	92.7761	5.6629
15.145	109.96	92.7760	5.6629
15.153	109.96	92.7760	5.6629
15.162	109.96	92.7760	5.6629
15.170	109.96	92.7761	5.6629
15.178	109.96	92.7762	5.6629
15.187	109.96	92.7762	5.6629
15.195	109.96	92.7762	5.6629
15.203	109.96	92.7762	5.6629
15.212	109.96	92.7762	5.6629
15.220	109.96	92.7761	5.6629
15.228	109.96	92.7761	5.6629
15.237	109.96	92.7762	5.6629
15.245	109.96	92.7762	5.6629
15.253	109.96	92.7763	5.6629
15.262	109.96	92.7765	5.6629
15.270	109.96	92.7764	5.6629
15.278	109.96	92.7763	5.6629
15.287	109.96	92.7764	5.6629
15.295	109.96	92.7765	5.6629
15.303	109.96	92.7766	5.6629
15.312	109.96	92.7767	5.6629
15.320	109.96	92.7769	5.6629
15.328	109.96	92.7769	5.6629
15.337	109.96	92.7769	5.6629
15.345	109.96	92.7768	5.6629
15.353	109.96	92.7767	5.6629
15.362	109.96	92.7767	5.6629
15.370	109.96	92.7765	5.6629
15.378	109.96	92.7764	5.6629
15.387	109.96	92.7764	5.6629
15.395	109.96	92.7764	5.6629
15.403	109.96	92.7768	5.6629
15.412	109.96	92.7769	5.6629
15.420	109.96	92.7770	5.6629
15.428	109.96	92.7771	5.6629
15.437	109.96	92.7768	5.6629
15.445	109.96	92.7766	5.6629
15.453	109.96	92.7770	5.6629
15.462	109.96	92.7774	5.6630
15.470	109.96	92.7777	5.6630
15.478	109.96	92.7774	5.6630
15.487	109.96	92.7773	5.6629
15.495	109.96	92.7774	5.6630
15.503	109.96	92.7776	5.6630
15.512	109.96	92.7779	5.6630
15.520	109.96	92.7779	5.6630
15.528	109.96	92.7777	5.6630
15.537	109.96	92.7778	5.6630
15.545	109.96	92.7779	5.6630
15.553	109.96	92.7777	5.6630
15.562	109.96	92.7776	5.6630
15.570	109.96	92.7775	5.6630
15.578	109.97	92.7775	5.6630
15.587	109.97	92.7774	5.6629
15.595	109.97	92.7775	5.6630
15.603	109.97	92.7776	5.6630
15.612	109.97	92.7775	5.6630
15.620	109.97	92.7775	5.6630
15.628	109.97	92.7774	5.6629
15.637	109.97	92.7773	5.6629
15.645	109.97	92.7772	5.6629
15.653	109.97	92.7773	5.6629
15.662	109.97	92.7774	5.6629
15.670	109.97	92.7774	5.6629
15.678	109.97	92.7773	5.6629
15.687	109.97	92.7771	5.6629
15.695	109.97	92.7769	5.6629
15.703	109.97	92.7769	5.6629
15.712	109.97	92.7768	5.6629
15.720	109.97	92.7768	5.6629
15.728	109.97	92.7767	5.6629
15.737	109.97	92.7767	5.6629
15.745	109.97	92.7767	5.6629
15.753	109.97	92.7766	5.6629
15.762	109.97	92.7766	5.6629
15.770	109.97	92.7766	5.6629
15.778	109.98	92.7766	5.6629
15.787	109.98	92.7767	5.6629
15.795	109.98	92.7766	5.6629
15.803	109.98	92.7765	5.6629
15.812	109.98	92.7765	5.6629
15.820	109.98	92.7765	5.6629
15.828	109.98	92.7765	5.6629
15.837	109.98	92.7764	5.6629
15.845	109.98	92.7765	5.6629
15.853	109.98	92.7764	5.6629
15.862	109.98	92.7763	5.6629
15.870	109.98	92.7761	5.6629
15.878	109.98	92.7760	5.6629
15.887	109.98	92.7759	5.6629
15.895	109.98	92.7760	5.6629
15.903	109.98	92.7761	5.6629
15.912	109.98	92.7762	5.6629
15.920	109.98	92.7762	5.6629
15.928	109.98	92.7763	5.6629
15.937	109.98	92.7761	5.6629
15.945	109.98	92.7760	5.6629
15.953	109.98	92.7762	5.6629
15.962	109.98	92.7760	5.6629
15.970	109.98	92.7759	5.6629
15.978	109.98	92.7757	5.6628
15.987	109.98	92.7758	5.6628
15.995	109.97	92.7757	5.6628
16.003	109.97	92.7759	5.6629
16.012	109.97	92.7757	5.6628
16.020	109.97	92.7756	5.6628
16.028	109.97	92.7755	5.6628
16.037	109.97	92.7754	5.6628
16.045	109.97	92.7755	5.6628
16.053	109.97	92.7755	5.6628
16.062	109.97	92.7755	5.6628
16.070	109.97	92.7756	5.6628
16.078	109.97	92.7754	5.6628
16.087	109.97	92.7754	5.6628
16.095	109.97	92.7753	5.6628
16.103	109.97	92.7754	5.6628
16.112	109.97	92.7754	5.6628
16.120	109.97	92.7754	5.6628
16.128	109.97	92.7754	5.6628
16.137	109.97	92.7757	5.6628
16.145	109.97	92.7757	5.6628
16.153	109.97	92.7758	5.6629
16.162	109.97	92.7760	5.6629
16.170	109.97	92.7761	5.6629
16.178	109.97	92.7762	5.6629
16.187	109.97	92.7761	5.6629
16.195	109.97	92.7761	5.6629
16.203	109.97	92.7760	5.6629
16.212	109.97	92.7759	5.6629
16.220	109.97	92.7759	5.6629
16.228	109.97	92.7758	5.6629
16.237	109.97	92.7757	5.6628
16.245	109.97	92.7758	5.6629
16.253	109.97	92.7758	5.6629
16.262	109.98	92.7757	5.6628
16.270	109.98	92.7758	5.6628
16.278	109.98	92.7759	5.6629
16.287	109.98	92.7758	5.6629
16.295	109.98	92.7758	5.6629
16.303	109.98	92.7758	5.6629
16.312	109.98	92.7761	5.6629
16.320	109.98	92.7762	5.6629
16.328	109.98	92.7763	5.6629
16.337	109.98	92.7764	5.6629
16.345	109.98	92.7765	5.6629
16.353	109.98	92.7766	5.6629
16.362	109.98	92.7767	5.6629
16.370	109.98	92.7768	5.6629
16.378	109.98	92.7767	5.6629
16.387	109.98	92.7765	5.6629
16.395	109.98	92.7765	5.6629
16.403	109.98	92.7766	5.6629
16.412	109.98	92.7767	5.6629
16.420	109.98	92.7769	5.6629
16.428	109.98	92.7768	5.6629
16.437	109.98	92.7766	5.6629
16.445	109.98	92.7766	5.6629
16.453	109.98	92.7766	5.6629
16.462	109.99	92.7766	5.6629
16.470	109.99	92.7765	5.6629
16.478	109.99	92.7764	5.6629
16.487	109.99	92.7765	5.6629
16.495	109.99	92.7765	5.6629
16.503	109.99	92.7764	5.6629
16.512	109.99	92.7763	5.6629
16.520	109.99	92.7762	5.6629
16.528	109.99	92.7762	5.6629
16.537	109.99	92.7765	5.6629
16.545	109.99	92.7766	5.6629
16.553	109.99	92.7766	5.6629
16.562	109.99	92.7765	5.6629
16.570	109.99	92.7764	5.6629
16.578	109.99	92.7763	5.6629
16.587	109.99	92.7765	5.6629
16.595	109.99	92.7764	5.6629
16.603	109.99	92.7764	5.6629
16.612	109.99	92.7763	5.6629
16.620	109.99	92.7762	5.6629
16.628	109.99	92.7762	5.6629
16.637	109.99	92.7763	5.6629
16.645	109.99	92.7762	5.6629
16.653	109.99	92.7764	5.6629
16.662	109.99	92.7767	5.6629
16.670	109.99	92.7767	5.6629
16.678	109.99	92.7766	5.6629
16.687	109.99	92.7767	5.6629
16.695	109.99	92.7765	5.6629
16.703	109.99	92.7763	5.6629
16.712	109.99	92.7763	5.6629
16.720	109.99	92.7763	5.6629
16.728	109.99	92.7764	5.6629
16.737	109.99	92.7764	5.6629
16.745	109.99	92.7761	5.6629
16.753	109.99	92.7760	5.6629
16.762	109.98	92.7760	5.6629
16.770	109.98	92.7760	5.6629
16.778	109.98	92.7760	5.6629
16.787	109.98	92.7759	5.6629
16.795	109.98	92.7758	5.6629
16.803	109.98	92.7757	5.6628
16.812	109.98	92.7756	5.6628
16.820	109.98	92.7757	5.6628
16.828	109.98	92.7759	5.6629
16.837	109.98	92.7757	5.6628
16.845	109.98	92.7757	5.6628
16.853	109.98	92.7757	5.6628
16.862	109.98	92.7756	5.6628
16.870	109.98	92.7756	5.6628
16.878	109.98	92.7757	5.6628
16.887	109.99	92.7757	5.6628
16.895	109.99	92.7758	5.6629
16.903	109.99	92.7757	5.6628
16.912	109.99	92.7757	5.6628
16.920	109.99	92.7758	5.6629
16.928	109.99	92.7758	5.6629
16.937	109.99	92.7758	5.6629
16.945	109.99	92.7758	5.6629
16.953	109.99	92.7760	5.6629
16.962	109.99	92.7760	5.6629
16.970	109.99	92.7760	5.6629
16.978	109.99	92.7760	5.6629
16.987	109.99	92.7759	5.6629
16.995	109.99	92.7759	5.6629
17.003	109.99	92.7760	5.6629
17.012	109.98	92.7762	5.6629
17.020	109.98	92.7762	5.6629
17.028	109.98	92.7762	5.6629
17.037	109.98	92.7761	5.6629
17.045	109.98	92.7760	5.6629
17.053	109.98	92.7761	5.6629
17.062	109.98	92.7761	5.6629
17.070	109.98	92.7760	5.6629
17.078	109.98	92.7762	5.6629
17.087	109.98	92.7760	5.6629
17.095	109.98	92.7758	5.6629
17.103	109.98	92.7758	5.6629
17.112	109.98	92.7760	5.6629
17.120	109.98	92.7760	5.6629
17.128	109.98	92.7761	5.6629
17.137	109.98	92.7761	5.6629
17.145	109.98	92.7759	5.6629
17.153	109.98	92.7759	5.6629
17.162	109.98	92.7760	5.6629
17.170	109.98	92.7759	5.6629
17.178	109.98	92.7760	5.6629
17.187	109.98	92.7761	5.6629
17.195	109.98	92.7760	5.6629
17.203	109.98	92.7760	5.6629
17.212	109.98	92.7761	5.6629
17.220	109.98	92.7762	5.6629
17.228	109.98	92.7763	5.6629
17.237	109.98	92.7765	5.6629
17.245	109.98	92.7767	5.6629
17.253	109.98	92.7768	5.6629
17.262	109.98	92.7766	5.6629
17.270	109.98	92.7764	5.6629
17.278	109.98	92.7764	5.6629
17.287	109.98	92.7767	5.6629
17.295	109.98	92.7766	5.6629
17.303	109.98	92.7765	5.6629
17.312	109.98	92.7764	5.6629
17.320	109.98	92.7764	5.6629
17.328	109.98	92.7763	5.6629
17.337	109.98	92.7763	5.6629
17.345	109.98	92.7765	5.6629
17.353	109.98	92.7765	5.6629
17.362	109.98	92.7764	5.6629
17.370	109.98	92.7764	5.6629
17.378	109.98	92.7764	5.6629
17.387	109.98	92.7764	5.6629
17.395	109.98	92.7765	5.6629
17.403	109.98	92.7765	5.6629
17.412	109.98	92.7764	5.6629
17.420	109.98	92.7765	5.6629
17.428	109.98	92.7765	5.6629
17.437	109.98	92.7766	5.6629
17.445	109.98	92.7768	5.6629
17.453	109.98	92.7767	5.6629
17.462	109.98	92.7767	5.6629
17.470	109.98	92.7766	5.6629
17.478	109.98	92.7766	5.6629
17.487	109.98	92.7765	5.6629
17.495	109.98	92.7764	5.6629
17.503	109.98	92.7764	5.6629
17.512	109.98	92.7762	5.6629
17.520	109.99	92.7763	5.6629
17.528	109.99	92.7765	5.6629
17.537	109.99	92.7767	5.6629
17.545	109.99	92.7767	5.6629
17.553	109.99	92.7767	5.6629
17.562	109.99	92.7768	5.6629
17.570	109.99	92.7767	5.6629
17.578	109.99	92.7764	5.6629
17.587	109.99	92.7765	5.6629
17.595	109.99	92.7765	5.6629
17.603	109.99	92.7765	5.6629
17.612	109.99	92.7765	5.6629
17.620	109.99	92.7764	5.6629
17.628	109.99	92.7763	5.6629
17.637	109.99	92.7763	5.6629
17.645	109.99	92.7761	5.6629
17.653	109.99	92.7760	5.6629
17.662	109.99	92.7760	5.6629
17.670	109.99	92.7759	5.6629
17.678	109.99	92.7759	5.6629
17.687	109.99	92.7759	5.6629
17.695	110.00	92.7761	5.6629
17.703	110.00	92.7762	5.6629
17.712	110.00	92.7761	5.6629
17.720	110.00	92.7760	5.6629
17.728	110.00	92.7761	5.6629
17.737	110.00	92.7763	5.6629
17.745	110.00	92.7764	5.6629
17.753	110.00	92.7764	5.6629
17.762	110.00	92.7761	5.6629
17.770	110.00	92.7760	5.6629
17.778	110.00	92.7761	5.6629
17.787	110.00	92.7761	5.6629
17.795	110.00	92.7762	5.6629
17.803	110.00	92.7761	5.6629
17.812	110.00	92.7761	5.6629
17.820	110.00	92.7763	5.6629
17.828	110.00	92.7760	5.6629
17.837	110.00	92.7759	5.6629
17.845	110.00	92.7760	5.6629
17.853	110.00	92.7759	5.6629
17.862	110.00	92.7760	5.6629
17.870	110.00	92.7760	5.6629
17.878	110.00	92.7760	5.6629
17.887	110.00	92.7761	5.6629
17.895	110.00	92.7761	5.6629
17.903	110.00	92.7760	5.6629
17.912	110.00	92.7760	5.6629
17.920	110.00	92.7761	5.6629
17.928	110.00	92.7761	5.6629
17.937	110.00	92.7760	5.6629
17.945	110.00	92.7761	5.6629
17.953	110.00	92.7762	5.6629
17.962	110.00	92.7763	5.6629
17.970	109.99	92.7762	5.6629
17.978	109.99	92.7761	5.6629
17.987	109.99	92.7761	5.6629
17.995	109.99	92.7759	5.6629
18.003	109.99	92.7758	5.6629
18.012	109.99	92.7760	5.6629
18.020	109.99	92.7759	5.6629
18.028	109.99	92.7760	5.6629
18.037	109.99	92.7758	5.6629
18.045	109.99	92.7757	5.6628
18.053	109.99	92.7757	5.6628
18.062	109.98	92.7757	5.6628
18.070	109.98	92.7757	5.6628
18.078	109.98	92.7758	5.6629
18.087	109.98	92.7760	5.6629
18.095	109.98	92.7761	5.6629
18.103	109.98	92.7761	5.6629
18.112	109.98	92.7759	5.6629
18.120	109.98	92.7758	5.6629
18.128	109.98	92.7758	5.6629
18.137	109.98	92.7759	5.6629
18.145	109.97	92.7759	5.6629
18.153	109.97	92.7759	5.6629
18.162	109.97	92.7759	5.6629
18.170	109.97	92.7758	5.6629
18.178	109.97	92.7760	5.6629
18.187	109.97	92.7760	5.6629
18.195	109.97	92.7759	5.6629
18.203	109.97	92.7758	5.6629
18.212	109.97	92.7760	5.6629
18.220	109.97	92.7760	5.6629
18.228	109.97	92.7761	5.6629
18.237	109.97	92.7762	5.6629
18.245	109.97	92.7763	5.6629
18.253	109.97	92.7762	5.6629
18.262	109.97	92.7764	5.6629
18.270	109.97	92.7765	5.6629
18.278	109.97	92.7764	5.6629
18.287	109.97	92.7766	5.6629
18.295	109.97	92.7765	5.6629
18.303	109.97	92.7763	5.6629
18.312	109.97	92.7763	5.6629
18.320	109.97	92.7762	5.6629
18.328	109.97	92.7762	5.6629
18.337	109.97	92.7762	5.6629
18.345	109.97	92.7762	5.6629
18.353	109.97	92.7761	5.6629
18.362	109.98	92.7762	5.6629
18.370	109.98	92.7763	5.6629
18.378	109.98	92.7763	5.6629
18.387	109.98	92.7762	5.6629
18.395	109.98	92.7762	5.6629
18.403	109.98	92.7761	5.6629
18.412	109.98	92.7760	5.6629
18.420	109.98	92.7761	5.6629
18.428	109.98	92.7761	5.6629
18.437	109.98	92.7761	5.6629
18.445	109.98	92.7762	5.6629
18.453	109.98	92.7761	5.6629
18.462	109.98	92.7760	5.6629
18.470	109.98	92.7759	5.6629
18.478	109.98	92.7760	5.6629
18.487	109.98	92.7762	5.6629
18.495	109.98	92.7761	5.6629
18.503	109.98	92.7761	5.6629
18.512	109.98	92.7761	5.6629
18.520	109.98	92.7763	5.6629
18.528	109.98	92.7763	5.6629
18.537	109.98	92.7762	5.6629
18.545	109.98	92.7761	5.6629
18.553	109.98	92.7761	5.6629
18.562	109.98	92.7760	5.6629
18.570	109.99	92.7760	5.6629
18.578	109.99	92.7765	5.6629
18.587	109.99	92.7766	5.6629
18.595	109.99	92.7764	5.6629
18.603	109.99	92.7762	5.6629
18.612	109.99	92.7763	5.6629
18.620	109.99	92.7763	5.6629
18.628	109.99	92.7763	5.6629
18.637	109.99	92.7764	5.6629
18.645	109.99	92.7765	5.6629
18.653	109.99	92.7766	5.6629
18.662	109.99	92.7764	5.6629
18.670	109.99	92.7763	5.6629
18.678	109.99	92.7764	5.6629
18.687	109.99	92.7764	5.6629
18.695	109.99	92.7761	5.6629
18.703	109.99	92.7760	5.6629
18.712	109.99	92.7760	5.6629
18.720	109.99	92.7760	5.6629
18.728	109.99	92.7760	5.6629
18.737	109.99	92.7761	5.6629
18.745	109.99	92.7761	5.6629
18.753	109.99	92.7761	5.6629
18.762	109.99	92.7760	5.6629
18.770	109.99	92.7760	5.6629
18.778	109.99	92.7760	5.6629
18.787	109.99	92.7760	5.6629
18.795	109.99	92.7760	5.6629
18.803	109.99	92.7760	5.6629
18.812	109.99	92.7760	5.6629
18.820	109.99	92.7760	5.6629
18.828	109.99	92.7761	5.6629
18.837	109.99	92.7763	5.6629
18.845	109.99	92.7765	5.6629
18.853	109.99	92.7765	5.6629
18.862	109.99	92.7764	5.6629
18.870	109.99	92.7765	5.6629
18.878	109.99	92.7766	5.6629
18.887	109.99	92.7767	5.6629
18.895	109.99	92.7768	5.6629
18.903	109.99	92.7768	5.6629
18.912	109.99	92.7767	5.6629
18.920	109.99	92.7768	5.6629
18.928	109.99	92.7768	5.6629
18.937	109.99	92.7768	5.6629
18.945	109.99	92.7769	5.6629
18.953	109.99	92.7769	5.6629
18.962	109.99	92.7766	5.6629
18.970	109.99	92.7764	5.6629
18.978	109.99	92.7765	5.6629
18.987	109.99	92.7764	5.6629
18.995	109.99	92.7765	5.6629
19.003	109.99	92.7767	5.6629
19.012	109.99	92.7765	5.6629
19.020	109.99	92.7763	5.6629
19.028	109.99	92.7761	5.6629
19.037	109.99	92.7762	5.6629
19.045	109.99	92.7762	5.6629
19.053	109.99	92.7763	5.6629
19.062	109.99	92.7763	5.6629
19.070	109.99	92.7764	5.6629
19.078	109.99	92.7764	5.6629
19.087	109.99	92.7764	5.6629
19.095	109.99	92.7765	5.6629
19.103	109.99	92.7766	5.6629
19.112	109.99	92.7765	5.6629
19.120	109.99	92.7763	5.6629
19.128	109.99	92.7762	5.6629
19.137	109.99	92.7761	5.6629
19.145	109.99	92.7761	5.6629
19.153	109.99	92.7763	5.6629
19.162	109.99	92.7763	5.6629
19.170	109.99	92.7763	5.6629
19.178	109.99	92.7766	5.6629
19.187	109.99	92.7768	5.6629
19.195	109.99	92.7771	5.6629
19.203	109.99	92.7772	5.6629
19.212	109.99	92.7772	5.6629
19.220	109.99	92.7772	5.6629
19.228	109.99	92.7772	5.6629
19.237	109.99	92.7772	5.6629
19.245	109.99	92.7772	5.6629
19.253	109.99	92.7773	5.6629
19.262	109.99	92.7774	5.6630
19.270	109.99	92.7775	5.6630
19.278	109.98	92.7773	5.6629
19.287	109.98	92.7772	5.6629
19.295	109.98	92.7772	5.6629
19.303	109.98	92.7772	5.6629
19.312	109.98	92.7772	5.6629
19.320	109.98	92.7772	5.6629
19.328	109.98	92.7773	5.6629
19.337	109.98	92.7774	5.6630
19.345	109.98	92.7774	5.6629
19.353	109.98	92.7774	5.6629
19.362	109.98	92.7774	5.6629
19.370	109.98	92.7775	5.6630
19.378	109.98	92.7773	5.6629
19.387	109.98	92.7768	5.6629
19.395	109.98	92.7764	5.6629
19.403	109.98	92.7765	5.6629
19.412	109.98	92.7765	5.6629
19.420	109.98	92.7764	5.6629
19.428	109.98	92.7764	5.6629
19.437	109.98	92.7763	5.6629
19.445	109.98	92.7762	5.6629
19.453	109.98	92.7761	5.6629
19.462	109.98	92.7760	5.6629
19.470	109.98	92.7760	5.6629
19.478	109.98	92.7760	5.6629
19.487	109.98	92.7759	5.6629
19.495	109.98	92.7759	5.6629
19.503	109.99	92.7764	5.6629
19.512	109.99	92.7769	5.6629
19.520	109.99	92.7770	5.6629
19.528	109.99	92.7770	5.6629
19.537	109.99	92.7769	5.6629
19.545	109.99	92.7771	5.6629
19.553	109.99	92.7772	5.6629
19.562	109.99	92.7770	5.6629
19.570	109.99	92.7771	5.6629
19.578	109.99	92.7772	5.6629
19.587	109.99	92.7773	5.6629
19.595	109.99	92.7771	5.6629
19.603	109.99	92.7770	5.6629
19.612	109.99	92.7769	5.6629
19.620	110.00	92.7768	5.6629
19.628	110.00	92.7767	5.6629
19.637	110.00	92.7766	5.6629
19.645	110.00	92.7766	5.6629
19.653	110.00	92.7767	5.6629
19.662	110.00	92.7766	5.6629
19.670	110.00	92.7767	5.6629
19.678	110.00	92.7768	5.6629
19.687	110.00	92.7771	5.6629
19.695	110.00	92.7770	5.6629
19.703	110.00	92.7768	5.6629
19.712	110.00	92.7768	5.6629
19.720	110.00	92.7769	5.6629
19.728	110.00	92.7768	5.6629
19.737	110.00	92.7767	5.6629
19.745	110.00	92.7766	5.6629
19.753	110.00	92.7767	5.6629
19.762	110.00	92.7768	5.6629
19.770	110.00	92.7767	5.6629
19.778	110.00	92.7767	5.6629
19.787	110.00	92.7766	5.6629
19.795	110.00	92.7766	5.6629
19.803	110.00	92.7767	5.6629
19.812	110.00	92.7766	5.6629
19.820	110.00	92.7765	5.6629
19.828	110.00	92.7763	5.6629
19.837	110.00	92.7761	5.6629
19.845	110.00	92.7760	5.6629
19.853	110.00	92.7760	5.6629
19.862	110.00	92.7761	5.6629
19.870	110.00	92.7761	5.6629
19.878	110.00	92.7762	5.6629
19.887	110.01	92.7761	5.6629
19.895	110.01	92.7760	5.6629
19.903	110.01	92.7759	5.6629
19.912	110.01	92.7758	5.6628
19.920	110.01	92.7758	5.6628
19.928	110.01	92.7759	5.6629
19.937	110.01	92.7759	5.6629
19.945	110.01	92.7758	5.6629
19.953	110.01	92.7758	5.6629
19.962	110.01	92.7758	5.6629
19.970	110.01	92.7758	5.6629
19.978	110.01	92.7758	5.6628
19.987	110.01	92.7754	5.6628
19.995	110.01	92.7750	5.6628
20.003	110.01	92.7744	5.6628
20.012	110.01	92.7738	5.6627
20.020	110.01	92.7732	5.6627
20.028	110.01	92.7728	5.6627
20.037	110.01	92.7725	5.6626
20.045	110.01	92.7726	5.6627
20.053	110.01	92.7723	5.6626
20.062	110.01	92.7718	5.6626
20.070	110.01	92.7715	5.6626
20.078	110.01	92.7713	5.6626
20.087	110.01	92.7711	5.6626
20.095	110.01	92.7708	5.6625
20.103	110.01	92.7706	5.6625
20.112	110.01	92.7703	5.6625
20.120	110.01	92.7699	5.6625
20.128	110.01	92.7696	5.6625
20.137	110.01	92.7694	5.6625
20.145	110.01	92.7692	5.6625
20.153	110.01	92.7690	5.6624
20.162	110.01	92.7687	5.6624
20.170	110.01	92.7683	5.6624
20.178	110.01	92.7682	5.6624
20.187	110.00	92.7682	5.6624
20.195	110.00	92.7680	5.6624
20.203	110.00	92.7680	5.6624
20.212	110.00	92.7680	5.6624
20.220	110.00	92.7678	5.6624
20.228	110.00	92.7675	5.6623
20.237	110.00	92.7672	5.6623
20.245	110.00	92.7670	5.6623
20.253	110.00	92.7667	5.6623
20.262	110.00	92.7666	5.6623
20.270	110.00	92.7665	5.6623
20.278	110.00	92.7664	5.6623
20.287	110.00	92.7664	5.6623
20.295	110.00	92.7662	5.6623
20.303	110.01	92.7660	5.6623
20.312	110.01	92.7660	5.6623
20.320	110.01	92.7660	5.6623
20.328	110.01	92.7657	5.6622
20.337	110.01	92.7657	5.6622
20.345	110.01	92.7655	5.6622
20.353	110.01	92.7654	5.6622
20.362	110.01	92.7655	5.6622
20.370	110.01	92.7656	5.6622
20.378	110.01	92.7658	5.6622
20.387	110.01	92.7657	5.6622
20.395	110.01	92.7656	5.6622
20.403	110.00	92.7656	5.6622
20.412	110.00	92.7655	5.6622
20.420	110.00	92.7654	5.6622
20.428	110.00	92.7652	5.6622
20.437	110.00	92.7650	5.6622
20.445	110.00	92.7649	5.6622
20.453	110.00	92.7649	5.6622
20.462	110.00	92.7648	5.6622
20.470	110.00	92.7649	5.6622
20.478	110.00	92.7648	5.6622
20.487	110.00	92.7649	5.6622
20.495	110.00	92.7648	5.6622
20.503	110.00	92.7647	5.6622
20.512	110.00	92.7647	5.6622
20.520	110.00	92.7645	5.6622
20.528	110.00	92.7644	5.6622
20.537	109.99	92.7642	5.6621
20.545	109.99	92.7641	5.6621
20.553	109.99	92.7641	5.6621
20.562	109.99	92.7643	5.6621
20.570	109.99	92.7642	5.6621
20.578	109.99	92.7641	5.6621
20.587	109.99	92.7639	5.6621
20.595	109.99	92.7638	5.6621
20.603	109.99	92.7636	5.6621
20.612	109.99	92.7635	5.6621
20.620	109.99	92.7635	5.6621
20.628	109.99	92.7635	5.6621
20.637	109.99	92.7635	5.6621
20.645	109.99	92.7635	5.6621
20.653	109.99	92.7635	5.6621
20.662	109.99	92.7634	5.6621
20.670	109.99	92.7633	5.6621
20.678	109.99	92.7633	5.6621
20.687	109.98	92.7633	5.6621
20.695	109.98	92.7634	5.6621
20.703	109.98	92.7634	5.6621
20.712	109.98	92.7635	5.6621
20.720	109.98	92.7634	5.6621
20.728	109.98	92.7634	5.6621
20.737	109.98	92.7635	5.6621
20.745	109.98	92.7635	5.6621
20.753	109.98	92.7634	5.6621
20.762	109.98	92.7634	5.6621
20.770	109.98	92.7634	5.6621
20.778	109.98	92.7635	5.6621
20.787	109.98	92.7633	5.6621
20.795	109.98	92.7633	5.6621
20.803	109.98	92.7633	5.6621
20.812	109.98	92.7633	5.6621
20.820	109.98	92.7633	5.6621
20.828	109.98	92.7633	5.6621
20.837	109.98	92.7636	5.6621
20.845	109.98	92.7638	5.6621
20.853	109.98	92.7640	5.6621
20.862	109.98	92.7641	5.6621
20.870	109.98	92.7642	5.6621
20.878	109.98	92.7642	5.6621
20.887	109.98	92.7640	5.6621
20.895	109.98	92.7640	5.6621
20.903	109.98	92.7639	5.6621
20.912	109.98	92.7638	5.6621
20.920	109.98	92.7638	5.6621
20.928	109.98	92.7639	5.6621
20.937	109.98	92.7640	5.6621
20.945	109.98	92.7641	5.6621
20.953	109.98	92.7641	5.6621
20.962	109.98	92.7639	5.6621
20.970	109.98	92.7640	5.6621
20.978	109.98	92.7642	5.6621
20.987	109.98	92.7643	5.6621
20.995	109.98	92.7642	5.6621
21.003	109.98	92.7639	5.6621
21.012	109.98	92.7638	5.6621
21.020	109.98	92.7638	5.6621
21.028	109.98	92.7639	5.6621
21.037	109.98	92.7641	5.6621
21.045	109.98	92.7640	5.6621
21.053	109.98	92.7639	5.6621
21.062	109.98	92.7637	5.6621
21.070	109.98	92.7638	5.6621
21.078	109.98	92.7638	5.6621
21.087	109.98	92.7636	5.6621
21.095	109.98	92.7636	5.6621
21.103	109.98	92.7636	5.6621
21.112	109.98	92.7636	5.6621
21.120	109.98	92.7636	5.6621
21.128	109.98	92.7635	5.6621
21.137	109.98	92.7635	5.6621
21.145	109.98	92.7635	5.6621
21.153	109.98	92.7636	5.6621
21.162	109.98	92.7637	5.6621
21.170	109.98	92.7636	5.6621
21.178	109.98	92.7636	5.6621
21.187	109.99	92.7636	5.6621
21.195	109.99	92.7635	5.6621
21.203	109.99	92.7634	5.6621
21.212	109.99	92.7635	5.6621
21.220	109.99	92.7636	5.6621
21.228	109.99	92.7636	5.6621
21.237	109.99	92.7635	5.6621
21.245	109.99	92.7635	5.6621
21.253	109.99	92.7634	5.6621
21.262	109.99	92.7634	5.6621
21.270	109.99	92.7634	5.6621
21.278	109.99	92.7634	5.6621
21.287	109.99	92.7633	5.6621
21.295	109.99	92.7632	5.6621
21.303	109.99	92.7632	5.6621
21.312	109.99	92.7631	5.6621
21.320	109.99	92.7631	5.6621
21.328	109.99	92.7632	5.6621
21.337	109.99	92.7631	5.6621
21.345	109.99	92.7630	5.6621
21.353	109.99	92.7630	5.6621
21.362	109.99	92.7630	5.6621
21.370	109.99	92.7630	5.6621
21.378	109.99	92.7630	5.6621
21.387	109.99	92.7631	5.6621
21.395	109.99	92.7631	5.6621
21.403	109.99	92.7630	5.6621
21.412	109.99	92.7630	5.6621
21.420	109.99	92.7630	5.6621
21.428	109.99	92.7629	5.6621
21.437	109.99	92.7628	5.6621
21.445	109.99	92.7629	5.6621
21.453	109.99	92.7630	5.6621
21.462	109.99	92.7630	5.6621
21.470	109.99	92.7630	5.6621
21.478	109.99	92.7630	5.6621
21.487	109.99	92.7629	5.6621
21.495	109.99	92.7628	5.6621
21.503	109.99	92.7628	5.6621
21.512	109.99	92.7627	5.6621
21.520	109.99	92.7627	5.6620
21.528	109.99	92.7625	5.6620
21.537	109.99	92.7625	5.6620
21.545	109.99	92.7624	5.6620
21.553	109.99	92.7624	5.6620
21.562	109.99	92.7626	5.6620
21.570	109.99	92.7627	5.6621
21.578	109.99	92.7626	5.6620
21.587	109.99	92.7624	5.6620
21.595	109.99	92.7625	5.6620
21.603	109.99	92.7625	5.6620
21.612	109.99	92.7625	5.6620
21.620	109.99	92.7624	5.6620
21.628	109.99	92.7624	5.6620
21.637	109.99	92.7623	5.6620
21.645	109.99	92.7623	5.6620
21.653	109.99	92.7623	5.6620
21.662	109.99	92.7623	5.6620
21.670	109.99	92.7624	5.6620
21.678	109.99	92.7624	5.6620
21.687	109.99	92.7623	5.6620
21.695	109.99	92.7623	5.6620
21.703	109.99	92.7623	5.6620
21.712	110.00	92.7624	5.6620
21.720	110.00	92.7624	5.6620
21.728	110.00	92.7623	5.6620
21.737	110.00	92.7624	5.6620
21.745	110.00	92.7623	5.6620
21.753	110.00	92.7623	5.6620
21.762	110.00	92.7623	5.6620
21.770	110.00	92.7623	5.6620
21.778	110.00	92.7623	5.6620
21.787	110.00	92.7624	5.6620
21.795	110.00	92.7624	5.6620
21.803	110.00	92.7623	5.6620
21.812	110.00	92.7624	5.6620
21.820	110.00	92.7624	5.6620
21.828	110.00	92.7623	5.6620
21.837	110.00	92.7623	5.6620
21.845	110.00	92.7621	5.6620
21.853	110.00	92.7621	5.6620
21.862	110.00	92.7621	5.6620
21.870	110.00	92.7621	5.6620
21.878	110.00	92.7623	5.6620
21.887	110.00	92.7626	5.6620
21.895	110.00	92.7628	5.6621
21.903	110.00	92.7626	5.6620
21.912	110.00	92.7627	5.6621
21.920	110.00	92.7628	5.6621
21.928	110.00	92.7626	5.6620
21.937	110.00	92.7628	5.6621
21.945	110.00	92.7630	5.6621
21.953	110.00	92.7630	5.6621
21.962	110.00	92.7630	5.6621
21.970	110.00	92.7630	5.6621
21.978	110.00	92.7632	5.6621
21.987	110.00	92.7631	5.6621
21.995	110.00	92.7633	5.6621
22.003	110.00	92.7633	5.6621
22.012	110.00	92.7633	5.6621
22.020	110.00	92.7635	5.6621
22.028	110.00	92.7634	5.6621
22.037	110.00	92.7634	5.6621
22.045	110.00	92.7635	5.6621
22.053	110.00	92.7637	5.6621
22.062	110.00	92.7637	5.6621
22.070	110.00	92.7637	5.6621
22.078	110.00	92.7637	5.6621
22.087	110.00	92.7637	5.6621
22.095	110.00	92.7636	5.6621
22.103	110.00	92.7635	5.6621
22.112	110.00	92.7636	5.6621
22.120	110.00	92.7637	5.6621
22.128	110.00	92.7637	5.6621
22.137	110.00	92.7636	5.6621
22.145	110.00	92.7635	5.6621
22.153	110.00	92.7633	5.6621
22.162	110.00	92.7631	5.6621
22.170	110.00	92.7631	5.6621
22.178	110.00	92.7631	5.6621
22.187	110.00	92.7630	5.6621
22.195	110.00	92.7630	5.6621
22.203	110.00	92.7630	5.6621
22.212	110.00	92.7629	5.6621
22.220	110.00	92.7628	5.6621
22.228	110.00	92.7628	5.6621
22.237	110.00	92.7628	5.6621
22.245	110.00	92.7627	5.6621
22.253	110.00	92.7627	5.6621
22.262	110.00	92.7627	5.6621
22.270	110.00	92.7627	5.6621
22.278	109.99	92.7628	5.6621
22.287	109.99	92.7629	5.6621
22.295	109.99	92.7630	5.6621
22.303	109.99	92.7629	5.6621
22.312	109.99	92.7629	5.6621
22.320	109.99	92.7631	5.6621
22.328	109.99	92.7633	5.6621
22.337	109.99	92.7633	5.6621
22.345	109.99	92.7632	5.6621
22.353	109.99	92.7632	5.6621
22.362	109.99	92.7632	5.6621
22.370	109.99	92.7632	5.6621
22.378	109.99	92.7632	5.6621
22.387	109.99	92.7632	5.6621
22.395	109.99	92.7632	5.6621
22.403	109.99	92.7633	5.6621
22.412	109.99	92.7635	5.6621
22.420	109.99	92.7634	5.6621
22.428	109.99	92.7632	5.6621
22.437	109.99	92.7631	5.6621
22.445	109.99	92.7631	5.6621
22.453	109.99	92.7630	5.6621
22.462	109.99	92.7629	5.6621
22.470	109.99	92.7628	5.6621
22.478	109.99	92.7627	5.6621
22.487	109.99	92.7628	5.6621
22.495	109.99	92.7629	5.6621
22.503	109.99	92.7627	5.6620
22.512	109.99	92.7628	5.6621
22.520	109.99	92.7629	5.6621
22.528	109.99	92.7628	5.6621
22.537	109.99	92.7628	5.6621
22.545	109.99	92.7628	5.6621
22.553	109.99	92.7630	5.6621
22.562	109.99	92.7630	5.6621
22.570	109.99	92.7630	5.6621
22.578	109.99	92.7629	5.6621
22.587	109.99	92.7629	5.6621
22.595	109.99	92.7630	5.6621
22.603	109.99	92.7629	5.6621
22.612	109.99	92.7629	5.6621
22.620	109.99	92.7630	5.6621
22.628	109.99	92.7629	5.6621
22.637	109.99	92.7628	5.6621
22.645	109.99	92.7628	5.6621
22.653	109.99	92.7628	5.6621
22.662	109.99	92.7629	5.6621
22.670	109.99	92.7629	5.6621
22.678	109.99	92.7630	5.6621
22.687	109.99	92.7632	5.6621
22.695	109.99	92.7631	5.6621
22.703	109.99	92.7630	5.6621
22.712	109.99	92.7630	5.6621
22.720	109.99	92.7630	5.6621
22.728	109.99	92.7630	5.6621
22.737	109.99	92.7630	5.6621
22.745	109.99	92.7632	5.6621
22.753	109.99	92.7634	5.6621
22.762	109.99	92.7633	5.6621
22.770	109.99	92.7634	5.6621
22.778	109.99	92.7634	5.6621
22.787	109.99	92.7634	5.6621
22.795	109.99	92.7634	5.6621
22.803	109.99	92.7634	5.6621
22.812	109.99	92.7635	5.6621
22.820	109.99	92.7636	5.6621
22.828	109.99	92.7637	5.6621
22.837	109.99	92.7637	5.6621
22.845	109.99	92.7638	5.6621
22.853	109.99	92.7639	5.6621
22.862	109.99	92.7639	5.6621
22.870	109.99	92.7640	5.6621
22.878	109.99	92.7638	5.6621
22.887	109.99	92.7637	5.6621
22.895	109.99	92.7636	5.6621
22.903	109.99	92.7636	5.6621
22.912	109.99	92.7636	5.6621
22.920	109.99	92.7634	5.6621
22.928	109.99	92.7633	5.6621
22.937	109.99	92.7632	5.6621
22.945	109.99	92.7632	5.6621
22.953	109.99	92.7632	5.6621
22.962	109.99	92.7632	5.6621
22.970	109.99	92.7634	5.6621
22.978	109.99	92.7633	5.6621
22.987	109.99	92.7632	5.6621
22.995	109.99	92.7632	5.6621
23.003	109.99	92.7634	5.6621
23.012	109.99	92.7636	5.6621
23.020	109.99	92.7637	5.6621
23.028	109.99	92.7634	5.6621
23.037	109.99	92.7633	5.6621
23.045	109.99	92.7633	5.6621
23.053	109.99	92.7634	5.6621
23.062	109.99	92.7635	5.6621
23.070	109.99	92.7634	5.6621
23.078	109.99	92.7634	5.6621
23.087	109.99	92.7635	5.6621
23.095	109.99	92.7634	5.6621
23.103	109.99	92.7634	5.6621
23.112	109.99	92.7636	5.6621
23.120	109.99	92.7635	5.6621
23.128	109.99	92.7634	5.6621
23.137	109.99	92.7634	5.6621
23.145	109.99	92.7632	5.6621
23.153	109.99	92.7632	5.6621
23.162	109.99	92.7634	5.6621
23.170	109.99	92.7635	5.6621
23.178	109.99	92.7633	5.6621
23.187	109.99	92.7632	5.6621
23.195	109.99	92.7630	5.6621
23.203	109.99	92.7630	5.6621
23.212	109.99	92.7631	5.6621
23.220	109.99	92.7630	5.6621
23.228	109.99	92.7629	5.6621
23.237	109.99	92.7629	5.6621
23.245	109.99	92.7629	5.6621
23.253	109.99	92.7629	5.6621
23.262	109.99	92.7628	5.6621
23.270	109.99	92.7628	5.6621
23.278	109.99	92.7629	5.6621
23.287	109.99	92.7629	5.6621
23.295	109.99	92.7627	5.6621
23.303	109.99	92.7628	5.6621
23.312	109.99	92.7628	5.6621
23.320	109.99	92.7628	5.6621
23.328	109.99	92.7629	5.6621
23.337	109.99	92.7629	5.6621
23.345	109.99	92.7628	5.6621
23.353	109.99	92.7628	5.6621
23.362	109.99	92.7628	5.6621
23.370	109.99	92.7627	5.6621
23.378	109.99	92.7626	5.6620
23.387	109.99	92.7625	5.6620
23.395	109.99	92.7623	5.6620
23.403	109.99	92.7625	5.6620
23.412	110.00	92.7626	5.6620
23.420	110.00	92.7627	5.6621
23.428	110.00	92.7629	5.6621
23.437	110.00	92.7628	5.6621
23.445	110.00	92.7628	5.6621
23.453	110.00	92.7629	5.6621
23.462	110.00	92.7630	5.6621
23.470	110.00	92.7629	5.6621
23.478	110.00	92.7629	5.6621
23.487	110.00	92.7630	5.6621
23.495	110.00	92.7630	5.6621
23.503	110.00	92.7631	5.6621
23.512	110.00	92.7632	5.6621
23.520	110.00	92.7633	5.6621
23.528	110.00	92.7633	5.6621
23.537	110.00	92.7633	5.6621
23.545	110.00	92.7633	5.6621
23.553	110.00	92.7635	5.6621
23.562	110.00	92.7637	5.6621
23.570	110.00	92.7636	5.6621
23.578	110.00	92.7636	5.6621
23.587	110.00	92.7635	5.6621
23.595	110.00	92.7636	5.6621
23.603	110.00	92.7635	5.6621
23.612	110.00	92.7635	5.6621
23.620	110.00	92.7634	5.6621
23.628	110.00	92.7635	5.6621
23.637	110.00	92.7634	5.6621
23.645	110.00	92.7634	5.6621
23.653	110.00	92.7633	5.6621
23.662	110.00	92.7633	5.6621
23.670	110.00	92.7634	5.6621
23.678	110.00	92.7633	5.6621
23.687	110.00	92.7632	5.6621
23.695	110.00	92.7631	5.6621
23.703	110.00	92.7629	5.6621
23.712	110.00	92.7630	5.6621
23.720	110.00	92.7630	5.6621
23.728	110.00	92.7631	5.6621
23.737	110.00	92.7632	5.6621
23.745	110.00	92.7631	5.6621
23.753	110.00	92.7631	5.6621
23.762	110.00	92.7632	5.6621
23.770	110.00	92.7634	5.6621
23.778	110.00	92.7636	5.6621
23.787	110.00	92.7636	5.6621
23.795	110.00	92.7635	5.6621
23.803	110.00	92.7634	5.6621
23.812	110.00	92.7634	5.6621
23.820	110.00	92.7635	5.6621
23.828	110.00	92.7633	5.6621
23.837	110.00	92.7633	5.6621
23.845	110.00	92.7636	5.6621
23.853	110.00	92.7636	5.6621
23.862	110.00	92.7635	5.6621
23.870	110.00	92.7633	5.6621
23.878	110.00	92.7631	5.6621
23.887	110.00	92.7632	5.6621
23.895	110.00	92.7633	5.6621
23.903	110.00	92.7634	5.6621
23.912	110.00	92.7635	5.6621
23.920	110.00	92.7635	5.6621
23.928	110.00	92.7635	5.6621
23.937	110.00	92.7635	5.6621
23.945	110.00	92.7636	5.6621
23.953	110.00	92.7636	5.6621
23.962	109.99	92.7638	5.6621
23.970	109.99	92.7636	5.6621
23.978	109.99	92.7635	5.6621
23.987	109.99	92.7636	5.6621
23.995	109.99	92.7636	5.6621
24.003	109.99	92.7637	5.6621
24.012	109.99	92.7638	5.6621
24.020	109.99	92.7639	5.6621
24.028	109.99	92.7637	5.6621
24.037	109.99	92.7635	5.6621
24.045	109.99	92.7636	5.6621
24.053	109.99	92.7636	5.6621
24.062	109.99	92.7638	5.6621
24.070	109.99	92.7638	5.6621
24.078	109.99	92.7638	5.6621
24.087	109.99	92.7640	5.6621
24.095	109.99	92.7640	5.6621
24.103	109.99	92.7639	5.6621
24.112	109.99	92.7639	5.6621
24.120	109.99	92.7639	5.6621
24.128	109.99	92.7639	5.6621
24.137	109.99	92.7640	5.6621
24.145	109.99	92.7640	5.6621
24.153	109.99	92.7640	5.6621
24.162	109.99	92.7639	5.6621
24.170	109.99	92.7638	5.6621
24.178	109.99	92.7639	5.6621
24.187	109.99	92.7641	5.6621
24.195	109.99	92.7643	5.6621
24.203	109.99	92.7640	5.6621
24.212	109.99	92.7639	5.6621
24.220	109.99	92.7640	5.6621
24.228	109.99	92.7640	5.6621
24.237	109.99	92.7641	5.6621
24.245	109.99	92.7644	5.6622
24.253	109.99	92.7643	5.6621
24.262	109.99	92.7642	5.6621
24.270	109.99	92.7642	5.6621
24.278	109.99	92.7642	5.6621
24.287	109.99	92.7641	5.6621
24.295	109.99	92.7640	5.6621
24.303	109.99	92.7641	5.6621
24.312	109.99	92.7641	5.6621
24.320	109.99	92.7641	5.6621
24.328	109.99	92.7641	5.6621
24.337	109.99	92.7641	5.6621
24.345	109.99	92.7642	5.6621
24.353	109.99	92.7642	5.6621
24.362	109.99	92.7642	5.6621
24.370	109.99	92.7642	5.6621
24.378	109.99	92.7644	5.6622
24.387	109.99	92.7646	5.6622
24.395	109.99	92.7646	5.6622
24.403	109.99	92.7645	5.6622
24.412	109.99	92.7645	5.6622
24.420	109.99	92.7645	5.6622
24.428	109.99	92.7645	5.6622
24.437	109.99	92.7646	5.6622
24.445	109.99	92.7646	5.6622
24.453	109.99	92.7646	5.6622
24.462	109.99	92.7644	5.6622
24.470	109.99	92.7646	5.6622
24.478	109.99	92.7647	5.6622
24.487	109.99	92.7647	5.6622
24.495	109.99	92.7645	5.6622
24.503	109.99	92.7644	5.6622
24.512	109.99	92.7643	5.6622
24.520	109.99	92.7643	5.6621
24.528	109.99	92.7643	5.6621
24.537	109.99	92.7643	5.6621
24.545	109.99	92.7642	5.6621
24.553	109.99	92.7643	5.6622
24.562	109.99	92.7644	5.6622
24.570	109.99	92.7643	5.6621
24.578	109.99	92.7644	5.6622
24.587	109.99	92.7646	5.6622
24.595	109.99	92.7645	5.6622
24.603	109.99	92.7642	5.6621
24.612	109.99	92.7639	5.6621
24.620	109.99	92.7638	5.6621
24.628	109.99	92.7639	5.6621
24.637	109.99	92.7638	5.6621
24.645	109.99	92.7638	5.6621
24.653	109.99	92.7640	5.6621
24.662	109.99	92.7642	5.6621
24.670	109.99	92.7642	5.6621
24.678	109.99	92.7642	5.6621
24.687	109.99	92.7643	5.6621
24.695	109.99	92.7643	5.6621
24.703	109.99	92.7645	5.6622
24.712	109.99	92.7647	5.6622
24.720	109.99	92.7646	5.6622
24.728	109.99	92.7644	5.6622
24.737	109.99	92.7643	5.6622
24.745	109.99	92.7643	5.6621
24.753	109.99	92.7643	5.6621
24.762	109.99	92.7643	5.6622
24.770	109.99	92.7644	5.6622
24.778	109.99	92.7644	5.6622
24.787	109.99	92.7644	5.6622
24.795	109.99	92.7644	5.6622
24.803	109.99	92.7643	5.6622
24.812	109.99	92.7645	5.6622
24.820	109.99	92.7645	5.6622
24.828	109.99	92.7645	5.6622
24.837	109.99	92.7646	5.6622
24.845	109.99	92.7647	5.6622
24.853	109.99	92.7646	5.6622
24.862	109.99	92.7646	5.6622
24.870	109.99	92.7646	5.6622
24.878	109.99	92.7646	5.6622
24.887	109.99	92.7647	5.6622
24.895	109.99	92.7648	5.6622
24.903	109.99	92.7646	5.6622
24.912	109.99	92.7645	5.6622
24.920	109.99	92.7644	5.6622
24.928	109.99	92.7644	5.6622
24.937	109.99	92.7646	5.6622
24.945	109.99	92.7647	5.6622
24.953	110.00	92.7647	5.6622
24.962	110.00	92.7648	5.6622
24.970	110.00	92.7646	5.6622
24.978	110.00	92.7644	5.6622
24.987	110.00	92.7645	5.6622
24.995	110.00	92.7646	5.6622
25.003	110.00	92.7647	5.6622
25.012	110.00	92.7647	5.6622
25.020	110.00	92.7647	5.6622
25.028	110.00	92.7648	5.6622
25.037	110.00	92.7649	5.6622
25.045	110.00	92.7650	5.6622
25.053	110.00	92.7650	5.6622
25.062	110.00	92.7649	5.6622
25.070	110.00	92.7652	5.6622
25.078	110.00	92.7654	5.6622
25.087	110.00	92.7655	5.6622
25.095	110.00	92.7655	5.6622
25.103	110.00	92.7653	5.6622
25.112	110.00	92.7651	5.6622
25.120	110.00	92.7651	5.6622
25.128	110.00	92.7651	5.6622
25.137	110.00	92.7651	5.6622
25.145	110.00	92.7651	5.6622
25.153	110.00	92.7649	5.6622
25.162	110.01	92.7649	5.6622
25.170	110.01	92.7649	5.6622
25.178	110.01	92.7648	5.6622
25.187	110.01	92.7647	5.6622
25.195	110.01	92.7648	5.6622
25.203	110.01	92.7650	5.6622
25.212	110.01	92.7649	5.6622
25.220	110.01	92.7649	5.6622
25.228	110.01	92.7650	5.6622
25.237	110.01	92.7650	5.6622
25.245	110.01	92.7648	5.6622
25.253	110.01	92.7648	5.6622
25.262	110.01	92.7650	5.6622
25.270	110.01	92.7650	5.6622
25.278	110.01	92.7648	5.6622
25.287	110.01	92.7646	5.6622
25.295	110.01	92.7646	5.6622
25.303	110.01	92.7646	5.6622
25.312	110.01	92.7648	5.6622
25.320	110.01	92.7647	5.6622
25.328	110.01	92.7646	5.6622
25.337	110.01	92.7647	5.6622
25.345	110.01	92.7646	5.6622
25.353	110.01	92.7646	5.6622
25.362	110.01	92.7646	5.6622
25.370	110.01	92.7646	5.6622
25.378	110.01	92.7648	5.6622
25.387	110.01	92.7647	5.6622
25.395	110.01	92.7648	5.6622
25.403	110.00	92.7648	5.6622
25.412	110.00	92.7648	5.6622
25.420	110.00	92.7649	5.6622
25.428	110.00	92.7649	5.6622
25.437	110.00	92.7650	5.6622
25.445	110.00	92.7650	5.6622
25.453	110.00	92.7649	5.6622
25.462	110.00	92.7648	5.6622
25.470	110.00	92.7648	5.6622
25.478	110.00	92.7649	5.6622
25.487	110.00	92.7648	5.6622
25.495	109.99	92.7647	5.6622
25.503	109.99	92.7648	5.6622
25.512	109.99	92.7649	5.6622
25.520	109.99	92.7651	5.6622
25.528	109.99	92.7653	5.6622
25.537	109.99	92.7654	5.6622
25.545	109.99	92.7657	5.6622
25.553	109.99	92.7657	5.6622
25.562	109.99	92.7654	5.6622
25.570	109.99	92.7651	5.6622
25.578	109.99	92.7650	5.6622
25.587	109.99	92.7653	5.6622
25.595	109.99	92.7653	5.6622
25.603	109.99	92.7651	5.6622
25.612	109.99	92.7650	5.6622
25.620	109.99	92.7650	5.6622
25.628	109.99	92.7649	5.6622
25.637	109.99	92.7649	5.6622
25.645	109.99	92.7649	5.6622
25.653	109.99	92.7648	5.6622
25.662	109.99	92.7647	5.6622
25.670	109.99	92.7648	5.6622
25.678	110.00	92.7650	5.6622
25.687	110.00	92.7650	5.6622
25.695	110.00	92.7649	5.6622
25.703	110.00	92.7649	5.6622
25.712	110.00	92.7650	5.6622
25.720	110.00	92.7650	5.6622
25.728	110.00	92.7651	5.6622
25.737	110.00	92.7650	5.6622
25.745	110.00	92.7649	5.6622
25.753	110.00	92.7650	5.6622
25.762	110.00	92.7649	5.6622
25.770	110.00	92.7649	5.6622
25.778	110.00	92.7647	5.6622
25.787	110.00	92.7646	5.6622
25.795	110.00	92.7645	5.6622
25.803	110.00	92.7645	5.6622
25.812	110.00	92.7645	5.6622
25.820	110.00	92.7646	5.6622
25.828	110.00	92.7648	5.6622
25.837	110.00	92.7647	5.6622
25.845	110.00	92.7649	5.6622
25.853	110.00	92.7648	5.6622
25.862	110.00	92.7647	5.6622
25.870	110.00	92.7647	5.6622
25.878	110.00	92.7648	5.6622
25.887	110.00	92.7649	5.6622
25.895	110.00	92.7648	5.6622
25.903	110.00	92.7648	5.6622
25.912	110.00	92.7648	5.6622
25.920	110.00	92.7649	5.6622
25.928	110.00	92.7651	5.6622
25.937	110.00	92.7651	5.6622
25.945	110.00	92.7650	5.6622
25.953	110.00	92.7649	5.6622
25.962	110.00	92.7648	5.6622
25.970	110.00	92.7648	5.6622
25.978	110.00	92.7648	5.6622
25.987	110.00	92.7649	5.6622
25.995	110.00	92.7648	5.6622
26.003	110.00	92.7649	5.6622
26.012	110.00	92.7650	5.6622
26.020	110.00	92.7650	5.6622
26.028	110.00	92.7649	5.6622
26.037	110.00	92.7648	5.6622
26.045	110.00	92.7648	5.6622
26.053	110.00	92.7649	5.6622
26.062	110.00	92.7650	5.6622
26.070	110.00	92.7650	5.6622
26.078	110.00	92.7650	5.6622
26.087	110.00	92.7649	5.6622
26.095	110.00	92.7650	5.6622
26.103	110.00	92.7652	5.6622
26.112	110.00	92.7651	5.6622
26.120	110.00	92.7649	5.6622
26.128	110.00	92.7648	5.6622
26.137	110.00	92.7647	5.6622
26.145	110.00	92.7648	5.6622
26.153	110.00	92.7646	5.6622
26.162	110.00	92.7646	5.6622
26.170	110.00	92.7648	5.6622
26.178	110.00	92.7647	5.6622
26.187	110.00	92.7648	5.6622
26.195	110.00	92.7648	5.6622
26.203	110.00	92.7651	5.6622
26.212	110.00	92.7652	5.6622
26.220	110.00	92.7652	5.6622
26.228	110.00	92.7651	5.6622
26.237	110.00	92.7652	5.6622
26.245	110.00	92.7652	5.6622
26.253	110.00	92.7652	5.6622
26.262	110.00	92.7652	5.6622
26.270	110.00	92.7652	5.6622
26.278	110.00	92.7656	5.6622
26.287	110.00	92.7656	5.6622
26.295	110.00	92.7654	5.6622
26.303	110.00	92.7654	5.6622
26.312	110.00	92.7655	5.6622
26.320	110.00	92.7655	5.6622
26.328	110.00	92.7654	5.6622
26.337	110.00	92.7653	5.6622
26.345	110.00	92.7653	5.6622
26.353	110.00	92.7652	5.6622
26.362	110.00	92.7652	5.6622
26.370	110.00	92.7654	5.6622
26.378	110.00	92.7653	5.6622
26.387	109.99	92.7652	5.6622
26.395	109.99	92.7652	5.6622
26.403	109.99	92.7653	5.6622
26.412	109.99	92.7654	5.6622
26.420	109.99	92.7654	5.6622
26.428	109.99	92.7654	5.6622
26.437	109.99	92.7653	5.6622
26.445	109.99	92.7653	5.6622
26.453	109.99	92.7653	5.6622
26.462	109.99	92.7654	5.6622
26.470	109.99	92.7655	5.6622
26.478	109.99	92.7655	5.6622
26.487	109.99	92.7655	5.6622
26.495	109.99	92.7656	5.6622
26.503	109.99	92.7655	5.6622
26.512	109.99	92.7656	5.6622
26.520	109.99	92.7656	5.6622
26.528	109.99	92.7656	5.6622
26.537	109.99	92.7656	5.6622
26.545	109.99	92.7658	5.6622
26.553	109.99	92.7658	5.6622
26.562	109.99	92.7658	5.6622
26.570	109.99	92.7657	5.6622
26.578	109.99	92.7658	5.6622
26.587	109.99	92.7658	5.6622
26.595	109.99	92.7658	5.6622
26.603	109.99	92.7659	5.6622
26.612	109.99	92.7659	5.6622
26.620	109.99	92.7658	5.6622
26.628	109.99	92.7659	5.6622
26.637	109.99	92.7659	5.6623
26.645	109.99	92.7660	5.6623
26.653	109.99	92.7660	5.6623
26.662	109.99	92.7661	5.6623
26.670	109.99	92.7661	5.6623
26.678	109.99	92.7659	5.6622
26.687	109.99	92.7659	5.6622
26.695	109.99	92.7660	5.6623
26.703	109.99	92.7659	5.6622
26.712	109.99	92.7658	5.6622
26.720	109.99	92.7659	5.6622
26.728	109.99	92.7659	5.6622
26.737	109.99	92.7658	5.6622
26.745	109.99	92.7658	5.6622
26.753	109.99	92.7659	5.6622
26.762	109.99	92.7659	5.6622
26.770	109.99	92.7660	5.6623
26.778	109.99	92.7661	5.6623
26.787	109.99	92.7662	5.6623
26.795	109.99	92.7663	5.6623
26.803	109.99	92.7662	5.6623
26.812	109.99	92.7662	5.6623
26.820	109.99	92.7664	5.6623
26.828	109.98	92.7664	5.6623
26.837	109.98	92.7664	5.6623
26.845	109.98	92.7663	5.6623
26.853	109.98	92.7664	5.6623
26.862	109.98	92.7666	5.6623
26.870	109.98	92.7668	5.6623
26.878	109.98	92.7667	5.6623
26.887	109.98	92.7665	5.6623
26.895	109.98	92.7664	5.6623
26.903	109.98	92.7663	5.6623
26.912	109.98	92.7665	5.6623
26.920	109.98	92.7666	5.6623
26.928	109.98	92.7665	5.6623
26.937	109.98	92.7666	5.6623
26.945	109.98	92.7666	5.6623
26.953	109.98	92.7666	5.6623
26.962	109.98	92.7667	5.6623
26.970	109.98	92.7666	5.6623
26.978	109.98	92.7666	5.6623
26.987	109.98	92.7666	5.6623
26.995	109.98	92.7665	5.6623
27.003	109.98	92.7664	5.6623
27.012	109.98	92.7662	5.6623
27.020	109.98	92.7662	5.6623
27.028	109.98	92.7663	5.6623
27.037	109.99	92.7664	5.6623
27.045	109.99	92.7666	5.6623
27.053	109.99	92.7664	5.6623
27.062	109.99	92.7663	5.6623
27.070	109.99	92.7664	5.6623
27.078	109.99	92.7664	5.6623
27.087	109.99	92.7664	5.6623
27.095	109.99	92.7662	5.6623
27.103	109.99	92.7661	5.6623
27.112	109.99	92.7662	5.6623
27.120	109.99	92.7663	5.6623
27.128	109.99	92.7664	5.6623
27.137	109.99	92.7663	5.6623
27.145	109.99	92.7660	5.6623
27.153	109.99	92.7660	5.6623
27.162	109.99	92.7660	5.6623
27.170	109.99	92.7660	5.6623
27.178	109.99	92.7659	5.6622
27.187	109.99	92.7659	5.6622
27.195	109.99	92.7658	5.6622
27.203	109.99	92.7658	5.6622
27.212	109.99	92.7659	5.6622
27.220	109.99	92.7661	5.6623
27.228	109.99	92.7663	5.6623
27.237	109.99	92.7665	5.6623
27.245	109.99	92.7667	5.6623
27.253	109.99	92.7665	5.6623
27.262	109.99	92.7662	5.6623
27.270	109.99	92.7661	5.6623
27.278	109.99	92.7661	5.6623
27.287	109.99	92.7660	5.6623
27.295	109.99	92.7662	5.6623
27.303	109.99	92.7660	5.6623
27.312	109.99	92.7658	5.6622
27.320	109.99	92.7657	5.6622
27.328	109.99	92.7657	5.6622
27.337	109.99	92.7658	5.6622
27.345	109.99	92.7658	5.6622
27.353	109.99	92.7656	5.6622
27.362	109.99	92.7654	5.6622
27.370	109.99	92.7654	5.6622
27.378	109.99	92.7653	5.6622
27.387	109.99	92.7652	5.6622
27.395	109.99	92.7652	5.6622
27.403	109.99	92.7654	5.6622
27.412	109.99	92.7653	5.6622
27.420	109.99	92.7651	5.6622
27.428	109.99	92.7652	5.6622
27.437	109.99	92.7653	5.6622
27.445	109.99	92.7653	5.6622
27.453	109.99	92.7652	5.6622
27.462	109.99	92.7653	5.6622
27.470	109.99	92.7653	5.6622
27.478	109.99	92.7654	5.6622
27.487	109.99	92.7654	5.6622
27.495	109.99	92.7654	5.6622
27.503	109.99	92.7654	5.6622
27.512	109.99	92.7654	5.6622
27.520	109.99	92.7654	5.6622
27.528	109.99	92.7654	5.6622
27.537	109.99	92.7654	5.6622
27.545	109.99	92.7656	5.6622
27.553	109.99	92.7659	5.6622
27.562	109.99	92.7661	5.6623
27.570	109.99	92.7661	5.6623
27.578	109.99	92.7661	5.6623
27.587	109.99	92.7659	5.6622
27.595	109.99	92.7659	5.6622
27.603	109.99	92.7659	5.6622
27.612	109.99	92.7660	5.6623
27.620	109.99	92.7661	5.6623
27.628	109.99	92.7663	5.6623
27.637	109.99	92.7663	5.6623
27.645	109.99	92.7660	5.6623
27.653	109.99	92.7660	5.6623
27.662	109.99	92.7660	5.6623
27.670	109.99	92.7659	5.6622
27.678	109.99	92.7658	5.6622
27.687	109.99	92.7658	5.6622
27.695	109.99	92.7657	5.6622
27.703	109.99	92.7656	5.6622
27.712	109.99	92.7658	5.6622
27.720	109.99	92.7658	5.6622
27.728	109.99	92.7658	5.6622
27.737	109.99	92.7658	5.6622
27.745	110.00	92.7657	5.6622
27.753	110.00	92.7655	5.6622
27.762	110.00	92.7656	5.6622
27.770	110.00	92.7657	5.6622
27.778	110.00	92.7656	5.6622
27.787	110.00	92.7655	5.6622
27.795	110.00	92.7654	5.6622
27.803	110.00	92.7653	5.6622
27.812	110.00	92.7652	5.6622
27.820	110.00	92.7651	5.6622
27.828	110.00	92.7653	5.6622
27.837	110.00	92.7653	5.6622
27.845	110.00	92.7653	5.6622
27.853	110.00	92.7652	5.6622
27.862	110.00	92.7652	5.6622
27.870	110.00	92.7651	5.6622
27.878	110.00	92.7652	5.6622
27.887	110.00	92.7653	5.6622
27.895	110.00	92.7653	5.6622
27.903	110.00	92.7652	5.6622
27.912	110.00	92.7650	5.6622
27.920	110.00	92.7651	5.6622
27.928	110.00	92.7653	5.6622
27.937	110.00	92.7654	5.6622
27.945	110.00	92.7656	5.6622
27.953	110.00	92.7655	5.6622
27.962	110.00	92.7654	5.6622
27.970	110.00	92.7654	5.6622
27.978	110.00	92.7654	5.6622
27.987	110.00	92.7654	5.6622
27.995	110.00	92.7655	5.6622
28.003	110.00	92.7656	5.6622
28.012	110.01	92.7656	5.6622
28.020	110.01	92.7656	5.6622
28.028	110.01	92.7655	5.6622
28.037	110.01	92.7656	5.6622
28.045	110.01	92.7656	5.6622
28.053	110.01	92.7654	5.6622
28.062	110.01	92.7654	5.6622
28.070	110.01	92.7654	5.6622
28.078	110.01	92.7654	5.6622
28.087	110.01	92.7654	5.6622
28.095	110.01	92.7654	5.6622
28.103	110.01	92.7652	5.6622
28.112	110.01	92.7651	5.6622
28.120	110.01	92.7652	5.6622
28.128	110.01	92.7652	5.6622
28.137	110.01	92.7653	5.6622
28.145	110.01	92.7653	5.6622
28.153	110.01	92.7651	5.6622
28.162	110.01	92.7652	5.6622
28.170	110.01	92.7655	5.6622
28.178	110.01	92.7654	5.6622
28.187	110.01	92.7656	5.6622
28.195	110.01	92.7656	5.6622
28.203	110.01	92.7653	5.6622
28.212	110.01	92.7653	5.6622
28.220	110.01	92.7651	5.6622
28.228	110.01	92.7652	5.6622
28.237	110.01	92.7654	5.6622
28.245	110.01	92.7658	5.6622
28.253	110.01	92.7659	5.6622
28.262	110.01	92.7661	5.6623
28.270	110.01	92.7661	5.6623
28.278	110.01	92.7659	5.6622
28.287	110.01	92.7657	5.6622
28.295	110.01	92.7657	5.6622
28.303	110.01	92.7657	5.6622
28.312	110.01	92.7658	5.6622
28.320	110.01	92.7661	5.6623
28.328	110.01	92.7663	5.6623
28.337	110.01	92.7662	5.6623
28.345	110.01	92.7659	5.6622
28.353	110.01	92.7660	5.6623
28.362	110.01	92.7662	5.6623
28.370	110.01	92.7665	5.6623
28.378	110.01	92.7665	5.6623
28.387	110.01	92.7666	5.6623
28.395	110.01	92.7667	5.6623
28.403	110.01	92.7668	5.6623
28.412	110.01	92.7667	5.6623
28.420	110.01	92.7668	5.6623
28.428	110.01	92.7669	5.6623
28.437	110.01	92.7668	5.6623
28.445	110.01	92.7667	5.6623
28.453	110.01	92.7666	5.6623
28.462	110.01	92.7665	5.6623
28.470	110.01	92.7663	5.6623
28.478	110.01	92.7664	5.6623
28.487	110.01	92.7664	5.6623
28.495	110.01	92.7664	5.6623
28.503	110.01	92.7666	5.6623
28.512	110.01	92.7664	5.6623
28.520	110.01	92.7662	5.6623
28.528	110.01	92.7660	5.6623
28.537	110.01	92.7661	5.6623
28.545	110.01	92.7660	5.6623
28.553	110.01	92.7658	5.6622
28.562	110.00	92.7658	5.6622
28.570	110.00	92.7658	5.6622
28.578	110.00	92.7656	5.6622
28.587	110.00	92.7655	5.6622
28.595	110.00	92.7654	5.6622
28.603	110.00	92.7655	5.6622
28.612	110.00	92.7656	5.6622
28.620	110.00	92.7655	5.6622
28.628	110.00	92.7654	5.6622
28.637	110.00	92.7654	5.6622
28.645	110.00	92.7653	5.6622
28.653	110.00	92.7652	5.6622
28.662	110.00	92.7652	5.6622
28.670	110.00	92.7652	5.6622
28.678	110.00	92.7651	5.6622
28.687	110.00	92.7652	5.6622
28.695	110.00	92.7654	5.6622
28.703	110.00	92.7655	5.6622
28.712	110.00	92.7656	5.6622
28.720	110.00	92.7657	5.6622
28.728	110.00	92.7656	5.6622
28.737	109.99	92.7656	5.6622
28.745	109.99	92.7656	5.6622
28.753	109.99	92.7658	5.6622
28.762	109.99	92.7657	5.6622
28.770	109.99	92.7657	5.6622
28.778	109.99	92.7657	5.6622
28.787	109.99	92.7657	5.6622
28.795	109.99	92.7658	5.6622
28.803	109.99	92.7659	5.6622
28.812	109.99	92.7658	5.6622
28.820	109.99	92.7658	5.6622
28.828	109.99	92.7657	5.6622
28.837	109.99	92.7657	5.6622
28.845	109.99	92.7658	5.6622
28.853	109.99	92.7658	5.6622
28.862	109.99	92.7657	5.6622
28.870	109.99	92.7657	5.6622
28.878	109.99	92.7658	5.6622
28.887	109.99	92.7658	5.6622
28.895	109.99	92.7657	5.6622
28.903	109.99	92.7656	5.6622
28.912	109.99	92.7656	5.6622
28.920	109.99	92.7656	5.6622
28.928	109.99	92.7656	5.6622
28.937	109.99	92.7655	5.6622
28.945	109.99	92.7654	5.6622
28.953	109.99	92.7654	5.6622
28.962	109.99	92.7655	5.6622
28.970	109.99	92.7656	5.6622
28.978	109.99	92.7655	5.6622
28.987	109.99	92.7655	5.6622
28.995	109.99	92.7655	5.6622
29.003	109.99	92.7656	5.6622
29.012	109.99	92.7657	5.6622
29.020	109.99	92.7659	5.6622
29.028	109.99	92.7659	5.6622
29.037	109.99	92.7660	5.6623
29.045	109.99	92.7660	5.6623
29.053	109.99	92.7661	5.6623
29.062	109.99	92.7661	5.6623
29.070	109.99	92.7661	5.6623
29.078	109.99	92.7660	5.6623
29.087	109.99	92.7660	5.6623
29.095	109.99	92.7658	5.6622
29.103	109.99	92.7658	5.6622
29.112	109.99	92.7659	5.6622
29.120	109.99	92.7658	5.6622
29.128	109.99	92.7657	5.6622
29.137	109.99	92.7658	5.6622
29.145	109.99	92.7659	5.6622
29.153	109.99	92.7660	5.6623
29.162	109.99	92.7662	5.6623
29.170	109.99	92.7661	5.6623
29.178	109.99	92.7660	5.6623
29.187	109.99	92.7660	5.6623
29.195	109.99	92.7660	5.6623
29.203	109.99	92.7661	5.6623
29.212	109.99	92.7660	5.6623
29.220	109.99	92.7659	5.6622
29.228	109.99	92.7659	5.6622
29.237	109.99	92.7660	5.6623
29.245	109.99	92.7659	5.6623
29.253	109.99	92.7657	5.6622
29.262	109.99	92.7655	5.6622
29.270	109.99	92.7655	5.6622
29.278	109.99	92.7657	5.6622
29.287	109.99	92.7657	5.6622
29.295	109.99	92.7656	5.6622
29.303	109.99	92.7654	5.6622
29.312	109.99	92.7654	5.6622
29.320	109.99	92.7657	5.6622
29.328	109.99	92.7660	5.6623
29.337	109.99	92.7661	5.6623
29.345	109.99	92.7661	5.6623
29.353	109.99	92.7659	5.6622
29.362	109.99	92.7658	5.6622
29.370	109.99	92.7657	5.6622
29.378	109.99	92.7657	5.6622
29.387	109.99	92.7658	5.6622
29.395	109.99	92.7660	5.6623
29.403	109.99	92.7660	5.6623
29.412	109.99	92.7659	5.6622
29.420	109.99	92.7660	5.6623
29.428	109.98	92.7662	5.6623
29.437	109.98	92.7662	5.6623
29.445	109.98	92.7662	5.6623
29.453	109.98	92.7661	5.6623
29.462	109.98	92.7662	5.6623
29.470	109.98	92.7664	5.6623
29.478	109.98	92.7666	5.6623
29.487	109.98	92.7663	5.6623
29.495	109.98	92.7661	5.6623
29.503	109.98	92.7661	5.6623
29.512	109.98	92.7663	5.6623
29.520	109.98	92.7662	5.6623
29.528	109.98	92.7661	5.6623
29.537	109.98	92.7659	5.6622
29.545	109.98	92.7658	5.6622
29.553	109.98	92.7658	5.6622
29.562	109.98	92.7659	5.6622
29.570	109.98	92.7660	5.6623
29.578	109.98	92.7659	5.6622
29.587	109.98	92.7659	5.6622
29.595	109.98	92.7658	5.6622
29.603	109.98	92.7658	5.6622
29.612	109.98	92.7658	5.6622
29.620	109.98	92.7658	5.6622
29.628	109.98	92.7656	5.6622
29.637	109.98	92.7656	5.6622
29.645	109.98	92.7656	5.6622
29.653	109.98	92.7656	5.6622
29.662	109.98	92.7657	5.6622
29.670	109.98	92.7656	5.6622
29.678	109.98	92.7655	5.6622
29.687	109.98	92.7656	5.6622
29.695	109.98	92.7656	5.6622
29.703	109.98	92.7657	5.6622
29.712	109.99	92.7657	5.6622
29.720	109.99	92.7656	5.6622
29.728	109.99	92.7657	5.6622
29.737	109.99	92.7658	5.6622
29.745	109.99	92.7659	5.6623
29.753	109.99	92.7661	5.6623
29.762	109.99	92.7662	5.6623
29.770	109.99	92.7663	5.6623
29.778	109.99	92.7664	5.6623
29.787	109.99	92.7663	5.6623
29.795	109.99	92.7666	5.6623
29.803	109.99	92.7667	5.6623
29.812	109.99	92.7667	5.6623
29.820	109.99	92.7667	5.6623
29.828	109.99	92.7667	5.6623
29.837	109.99	92.7667	5.6623
29.845	109.99	92.7667	5.6623
29.853	109.99	92.7668	5.6623
29.862	109.99	92.7666	5.6623
29.870	109.99	92.7665	5.6623
29.878	109.99	92.7666	5.6623
29.887	109.99	92.7669	5.6623
29.895	109.99	92.7669	5.6623
29.903	109.99	92.7668	5.6623
29.912	109.99	92.7666	5.6623
29.920	109.99	92.7666	5.6623
29.928	109.99	92.7666	5.6623
29.937	109.99	92.7666	5.6623
29.945	109.99	92.7665	5.6623
29.953	109.99	92.7665	5.6623
29.962	109.99	92.7665	5.6623
29.970	109.99	92.7664	5.6623
29.978	109.99	92.7664	5.6623
29.987	109.99	92.7664	5.6623
29.995	109.99	92.7663	5.6623
30.003	110.00	92.7663	5.6623
30.012	110.00	92.7663	5.6623
30.020	110.00	92.7663	5.6623
30.028	110.00	92.7663	5.6623
30.037	110.00	92.7662	5.6623
30.045	110.00	92.7663	5.6623
30.053	110.00	92.7664	5.6623
30.062	110.00	92.7664	5.6623
30.070	110.00	92.7664	5.6623
30.078	110.00	92.7665	5.6623
30.087	110.00	92.7665	5.6623
30.095	110.00	92.7663	5.6623
30.103	110.00	92.7663	5.6623
30.112	110.00	92.7664	5.6623
30.120	110.00	92.7665	5.6623
30.128	110.00	92.7665	5.6623
30.137	110.00	92.7665	5.6623
30.145	110.00	92.7665	5.6623
30.153	110.00	92.7666	5.6623
30.162	110.00	92.7667	5.6623
30.170	110.00	92.7668	5.6623
30.178	110.00	92.7670	5.6623
30.187	110.00	92.7667	5.6623
30.195	110.00	92.7667	5.6623
30.203	110.00	92.7667	5.6623
30.212	110.00	92.7667	5.6623
30.220	110.00	92.7668	5.6623
30.228	110.00	92.7668	5.6623
30.237	110.00	92.7669	5.6623
30.245	110.00	92.7671	5.6623
30.253	110.00	92.7672	5.6623
30.262	110.00	92.7673	5.6623
30.270	110.00	92.7671	5.6623
30.278	110.00	92.7670	5.6623
30.287	110.00	92.7671	5.6623
30.295	110.00	92.7672	5.6623
30.303	110.00	92.7672	5.6623
30.312	110.00	92.7672	5.6623
30.320	110.00	92.7671	5.6623
30.328	110.00	92.7672	5.6623
30.337	110.00	92.7671	5.6623
30.345	110.00	92.7671	5.6623
30.353	110.00	92.7670	5.6623
30.362	110.00	92.7668	5.6623
30.370	110.00	92.7666	5.6623
30.378	110.00	92.7667	5.6623
30.387	110.00	92.7668	5.6623
30.395	110.00	92.7668	5.6623
30.403	110.00	92.7668	5.6623
30.412	110.00	92.7667	5.6623
30.420	110.00	92.7667	5.6623
30.428	110.00	92.7667	5.6623
30.437	110.00	92.7666	5.6623
30.445	110.00	92.7666	5.6623
30.453	110.00	92.7668	5.6623
30.462	110.00	92.7669	5.6623
30.470	110.00	92.7668	5.6623
30.478	110.00	92.7667	5.6623
30.487	110.00	92.7666	5.6623
30.495	110.00	92.7666	5.6623
30.503	110.00	92.7668	5.6623
30.512	110.00	92.7669	5.6623
30.520	110.00	92.7669	5.6623
30.528	110.00	92.7668	5.6623
30.537	110.00	92.7667	5.6623
30.545	110.00	92.7666	5.6623
30.553	110.00	92.7666	5.6623
30.562	110.00	92.7666	5.6623
30.570	110.00	92.7666	5.6623
30.578	110.00	92.7665	5.6623
30.587	110.01	92.7666	5.6623
30.595	110.01	92.7667	5.6623
30.603	110.01	92.7668	5.6623
30.612	110.01	92.7669	5.6623
30.620	110.01	92.7670	5.6623
30.628	110.01	92.7668	5.6623
30.637	110.01	92.7667	5.6623
30.645	110.01	92.7669	5.6623
30.653	110.01	92.7670	5.6623
30.662	110.01	92.7669	5.6623
30.670	110.01	92.7669	5.6623
30.678	110.01	92.7670	5.6623
30.687	110.01	92.7671	5.6623
30.695	110.01	92.7670	5.6623
30.703	110.01	92.7671	5.6623
30.712	110.01	92.7673	5.6623
30.720	110.01	92.7674	5.6623
30.728	110.01	92.7673	5.6623
30.737	110.01	92.7673	5.6623
30.745	110.01	92.7674	5.6623
30.753	110.01	92.7674	5.6623
30.762	110.00	92.7673	5.6623
30.770	110.00	92.7672	5.6623
30.778	110.00	92.7673	5.6623
30.787	110.00	92.7674	5.6623
30.795	110.00	92.7676	5.6623
30.803	110.00	92.7675	5.6623
30.812	110.00	92.7674	5.6623
30.820	110.00	92.7673	5.6623
30.828	110.00	92.7673	5.6623
30.837	110.00	92.7673	5.6623
30.845	110.00	92.7675	5.6623
30.853	110.00	92.7677	5.6624
30.862	110.00	92.7674	5.6623
30.870	110.00	92.7672	5.6623
30.878	110.00	92.7672	5.6623
30.887	110.00	92.7673	5.6623
30.895	110.00	92.7672	5.6623
30.903	110.00	92.7671	5.6623
30.912	110.00	92.7669	5.6623
30.920	110.00	92.7669	5.6623
30.928	109.99	92.7670	5.6623
30.937	109.99	92.7670	5.6623
30.945	109.99	92.7670	5.6623
30.953	109.99	92.7670	5.6623
30.962	109.99	92.7668	5.6623
30.970	109.99	92.7669	5.6623
30.978	109.99	92.7668	5.6623
30.987	109.99	92.7666	5.6623
30.995	109.99	92.7665	5.6623
31.003	109.99	92.7665	5.6623
31.012	109.99	92.7665	5.6623
31.020	109.99	92.7665	5.6623
31.028	110.00	92.7664	5.6623
31.037	110.00	92.7664	5.6623
31.045	110.00	92.7665	5.6623
31.053	110.00	92.7665	5.6623
31.062	110.00	92.7664	5.6623
31.070	110.00	92.7664	5.6623
31.078	110.00	92.7665	5.6623
31.087	110.00	92.7665	5.6623
31.095	110.00	92.7664	5.6623
31.103	110.00	92.7666	5.6623
31.112	110.00	92.7666	5.6623
31.120	110.00	92.7666	5.6623
31.128	110.00	92.7666	5.6623
31.137	109.99	92.7665	5.6623
31.145	109.99	92.7665	5.6623
31.153	109.99	92.7665	5.6623
31.162	109.99	92.7666	5.6623
31.170	109.99	92.7666	5.6623
31.178	109.99	92.7665	5.6623
31.187	109.99	92.7666	5.6623
31.195	109.99	92.7666	5.6623
31.203	109.99	92.7665	5.6623
31.212	109.99	92.7664	5.6623
31.220	109.99	92.7662	5.6623
31.228	109.99	92.7663	5.6623
31.237	109.99	92.7663	5.6623
31.245	109.99	92.7662	5.6623
31.253	109.99	92.7665	5.6623
31.262	109.99	92.7668	5.6623
31.270	109.99	92.7669	5.6623
31.278	109.99	92.7672	5.6623
31.287	109.99	92.7674	5.6623
31.295	109.99	92.7671	5.6623
31.303	109.99	92.7669	5.6623
31.312	109.99	92.7670	5.6623
31.320	109.99	92.7671	5.6623
31.328	109.99	92.7670	5.6623
31.337	109.99	92.7670	5.6623
31.345	109.99	92.7670	5.6623
31.353	109.99	92.7671	5.6623
31.362	109.99	92.7670	5.6623
31.370	109.99	92.7671	5.6623
31.378	109.99	92.7674	5.6623
31.387	109.99	92.7674	5.6623
31.395	109.99	92.7673	5.6623
31.403	109.99	92.7672	5.6623
31.412	109.99	92.7671	5.6623
31.420	109.99	92.7671	5.6623
31.428	109.99	92.7671	5.6623
31.437	109.99	92.7671	5.6623
31.445	109.99	92.7671	5.6623
31.453	109.99	92.7670	5.6623
31.462	109.99	92.7670	5.6623
31.470	109.99	92.7671	5.6623
31.478	109.99	92.7671	5.6623
31.487	109.99	92.7671	5.6623
31.495	109.99	92.7672	5.6623
31.503	109.99	92.7672	5.6623
31.512	109.99	92.7671	5.6623
31.520	109.99	92.7671	5.6623
31.528	109.99	92.7670	5.6623
31.537	109.99	92.7670	5.6623
31.545	109.99	92.7671	5.6623
31.553	109.99	92.7670	5.6623
31.562	109.99	92.7670	5.6623
31.570	110.00	92.7670	5.6623
31.578	110.00	92.7671	5.6623
31.587	110.00	92.7673	5.6623
31.595	110.00	92.7674	5.6623
31.603	110.00	92.7673	5.6623
31.612	110.00	92.7672	5.6623
31.620	110.00	92.7671	5.6623
31.628	110.00	92.7670	5.6623
31.637	110.00	92.7670	5.6623
31.645	110.00	92.7670	5.6623
31.653	110.00	92.7669	5.6623
31.662	110.00	92.7669	5.6623
31.670	110.00	92.7669	5.6623
31.678	110.00	92.7668	5.6623
31.687	110.00	92.7670	5.6623
31.695	110.00	92.7670	5.6623
31.703	110.00	92.7668	5.6623
31.712	110.00	92.7667	5.6623
31.720	110.01	92.7667	5.6623
31.728	110.01	92.7666	5.6623
31.737	110.01	92.7664	5.6623
31.745	110.01	92.7664	5.6623
31.753	110.01	92.7664	5.6623
31.762	110.01	92.7662	5.6623
31.770	110.01	92.7661	5.6623
31.778	110.01	92.7661	5.6623
31.787	110.01	92.7662	5.6623
31.795	110.01	92.7662	5.6623
31.803	110.01	92.7661	5.6623
31.812	110.01	92.7662	5.6623
31.820	110.01	92.7663	5.6623
31.828	110.01	92.7663	5.6623
31.837	110.01	92.7664	5.6623
31.845	110.01	92.7665	5.6623
31.853	110.01	92.7667	5.6623
31.862	110.01	92.7670	5.6623
31.870	110.01	92.7673	5.6623
31.878	110.01	92.7674	5.6623
31.887	110.01	92.7674	5.6623
31.895	110.01	92.7672	5.6623
31.903	110.01	92.7669	5.6623
31.912	110.01	92.7664	5.6623
31.920	110.01	92.7664	5.6623
31.928	110.01	92.7664	5.6623
31.937	110.01	92.7663	5.6623
31.945	110.01	92.7663	5.6623
31.953	110.01	92.7664	5.6623
31.962	110.01	92.7665	5.6623
31.970	110.01	92.7668	5.6623
31.978	110.01	92.7670	5.6623
31.987	110.01	92.7670	5.6623
31.995	110.01	92.7669	5.6623
32.003	110.01	92.7668	5.6623
32.012	110.01	92.7669	5.6623
32.020	110.01	92.7669	5.6623
32.028	110.01	92.7669	5.6623
32.037	110.01	92.7670	5.6623
32.045	110.01	92.7671	5.6623
32.053	110.01	92.7673	5.6623
32.062	110.01	92.7676	5.6624
32.070	110.01	92.7678	5.6624
32.078	110.01	92.7678	5.6624
32.087	110.01	92.7677	5.6624
32.095	110.01	92.7678	5.6624
32.103	110.01	92.7678	5.6624
32.112	110.01	92.7677	5.6624
32.120	110.01	92.7677	5.6624
32.128	110.01	92.7676	5.6624
32.137	110.01	92.7676	5.6624
32.145	110.01	92.7676	5.6624
32.153	110.01	92.7675	5.6623
32.162	110.01	92.7674	5.6623
32.170	110.01	92.7674	5.6623
32.178	110.01	92.7675	5.6623
32.187	110.01	92.7674	5.6623
32.195	110.01	92.7675	5.6623
32.203	110.01	92.7675	5.6623
32.212	110.01	92.7674	5.6623
32.220	110.01	92.7675	5.6623
32.228	110.01	92.7677	5.6624
32.237	110.01	92.7678	5.6624
32.245	110.01	92.7677	5.6624
32.253	110.01	92.7679	5.6624
32.262	110.01	92.7679	5.6624
32.270	110.00	92.7678	5.6624
32.278	110.00	92.7676	5.6623
32.287	110.00	92.7675	5.6623
32.295	110.00	92.7675	5.6623
32.303	110.00	92.7674	5.6623
32.312	110.00	92.7674	5.6623
32.320	110.00	92.7673	5.6623
32.328	110.00	92.7673	5.6623
32.337	110.00	92.7675	5.6623
32.345	110.00	92.7673	5.6623
32.353	110.00	92.7674	5.6623
32.362	110.00	92.7676	5.6624
32.370	110.00	92.7677	5.6624
32.378	110.00	92.7677	5.6624
32.387	110.00	92.7679	5.6624
32.395	110.00	92.7679	5.6624
32.403	110.00	92.7678	5.6624
32.412	110.00	92.7678	5.6624
32.420	110.00	92.7679	5.6624
32.428	110.00	92.7680	5.6624
32.437	110.00	92.7682	5.6624
32.445	110.00	92.7681	5.6624
32.453	110.00	92.7679	5.6624
32.462	109.99	92.7678	5.6624
32.470	109.99	92.7678	5.6624
32.478	109.99	92.7678	5.6624
32.487	109.99	92.7680	5.6624
32.495	109.99	92.7680	5.6624
32.503	109.99	92.7680	5.6624
32.512	109.99	92.7679	5.6624
32.520	109.99	92.7679	5.6624
32.528	109.99	92.7681	5.6624
32.537	109.99	92.7683	5.6624
32.545	109.99	92.7684	5.6624
32.553	109.99	92.7682	5.6624
32.562	109.99	92.7680	5.6624
32.570	109.99	92.7678	5.6624
32.578	109.99	92.7678	5.6624
32.587	109.99	92.7679	5.6624
32.595	109.99	92.7679	5.6624
32.603	109.99	92.7678	5.6624
32.612	109.99	92.7677	5.6624
32.620	109.99	92.7677	5.6624
32.628	109.98	92.7678	5.6624
32.637	109.98	92.7679	5.6624
32.645	109.98	92.7679	5.6624
32.653	109.98	92.7678	5.6624
32.662	109.98	92.7677	5.6624
32.670	109.98	92.7676	5.6624
32.678	109.98	92.7677	5.6624
32.687	109.98	92.7678	5.6624
32.695	109.98	92.7678	5.6624
32.703	109.98	92.7678	5.6624
32.712	109.98	92.7680	5.6624
32.720	109.98	92.7681	5.6624
32.728	109.98	92.7683	5.6624
32.737	109.98	92.7684	5.6624
32.745	109.98	92.7684	5.6624
32.753	109.98	92.7685	5.6624
32.762	109.98	92.7684	5.6624
32.770	109.98	92.7683	5.6624
32.778	109.98	92.7685	5.6624
32.787	109.98	92.7683	5.6624
32.795	109.98	92.7683	5.6624
32.803	109.98	92.7683	5.6624
32.812	109.98	92.7683	5.6624
32.820	109.98	92.7683	5.6624
32.828	109.98	92.7685	5.6624
32.837	109.98	92.7686	5.6624
32.845	109.98	92.7685	5.6624
32.853	109.98	92.7684	5.6624
32.862	109.98	92.7684	5.6624
32.870	109.98	92.7684	5.6624
32.878	109.99	92.7685	5.6624
32.887	109.99	92.7687	5.6624
32.895	109.99	92.7688	5.6624
32.903	109.99	92.7689	5.6624
32.912	109.99	92.7689	5.6624
32.920	109.99	92.7688	5.6624
32.928	109.99	92.7688	5.6624
32.937	109.99	92.7688	5.6624
32.945	109.99	92.7687	5.6624
32.953	109.99	92.7687	5.6624
32.962	109.99	92.7687	5.6624
32.970	109.99	92.7687	5.6624
32.978	109.99	92.7687	5.6624
32.987	109.99	92.7688	5.6624
32.995	109.99	92.7688	5.6624
33.003	109.99	92.7687	5.6624
33.012	109.99	92.7687	5.6624
33.020	109.99	92.7686	5.6624
33.028	109.99	92.7685	5.6624
33.037	109.99	92.7685	5.6624
33.045	109.99	92.7685	5.6624
33.053	109.99	92.7685	5.6624
33.062	109.99	92.7684	5.6624
33.070	109.99	92.7684	5.6624
33.078	109.99	92.7683	5.6624
33.087	109.99	92.7683	5.6624
33.095	109.99	92.7683	5.6624
33.103	110.00	92.7685	5.6624
33.112	110.00	92.7686	5.6624
33.120	110.00	92.7685	5.6624
33.128	110.00	92.7684	5.6624
33.137	110.00	92.7685	5.6624
33.145	110.00	92.7686	5.6624
33.153	110.00	92.7684	5.6624
33.162	110.00	92.7683	5.6624
33.170	110.00	92.7684	5.6624
33.178	110.00	92.7684	5.6624
33.187	110.00	92.7686	5.6624
33.195	110.00	92.7688	5.6624
33.203	110.00	92.7690	5.6624
33.212	110.00	92.7689	5.6624
33.220	110.00	92.7686	5.6624
33.228	110.00	92.7684	5.6624
33.237	110.00	92.7685	5.6624
33.245	110.00	92.7685	5.6624
33.253	110.00	92.7683	5.6624
33.262	110.00	92.7682	5.6624
33.270	110.00	92.7683	5.6624
33.278	110.00	92.7683	5.6624
33.287	110.00	92.7683	5.6624
33.295	110.00	92.7685	5.6624
33.303	110.00	92.7685	5.6624
33.312	110.00	92.7684	5.6624
33.320	110.00	92.7684	5.6624
33.328	110.00	92.7683	5.6624
33.337	110.00	92.7685	5.6624
33.345	110.00	92.7684	5.6624
33.353	110.00	92.7685	5.6624
33.362	110.00	92.7686	5.6624
33.370	110.00	92.7684	5.6624
33.378	110.00	92.7683	5.6624
33.387	110.00	92.7682	5.6624
33.395	110.00	92.7683	5.6624
33.403	110.00	92.7682	5.6624
33.412	110.00	92.7683	5.6624
33.420	110.00	92.7681	5.6624
33.428	110.00	92.7680	5.6624
33.437	110.00	92.7679	5.6624
33.445	110.00	92.7679	5.6624
33.453	110.00	92.7679	5.6624
33.462	110.00	92.7679	5.6624
33.470	110.00	92.7679	5.6624
33.478	109.99	92.7678	5.6624
33.487	109.99	92.7678	5.6624
33.495	109.99	92.7680	5.6624
33.503	109.99	92.7681	5.6624
33.512	109.99	92.7681	5.6624
33.520	109.99	92.7680	5.6624
33.528	109.99	92.7681	5.6624
33.537	109.99	92.7681	5.6624
33.545	109.99	92.7682	5.6624
33.553	109.99	92.7682	5.6624
33.562	109.99	92.7682	5.6624
33.570	109.99	92.7682	5.6624
33.578	109.99	92.7683	5.6624
33.587	109.99	92.7683	5.6624
33.595	109.99	92.7681	5.6624
33.603	109.99	92.7680	5.6624
33.612	109.99	92.7683	5.6624
33.620	109.99	92.7683	5.6624
33.628	109.99	92.7682	5.6624
33.637	109.99	92.7681	5.6624
33.645	109.99	92.7680	5.6624
33.653	109.99	92.7682	5.6624
33.662	109.99	92.7684	5.6624
33.670	109.99	92.7684	5.6624
33.678	109.99	92.7683	5.6624
33.687	109.99	92.7682	5.6624
33.695	109.99	92.7682	5.6624
33.703	109.99	92.7681	5.6624
33.712	109.99	92.7680	5.6624
33.720	109.99	92.7680	5.6624
33.728	109.99	92.7680	5.6624
33.737	109.99	92.7681	5.6624
33.745	109.99	92.7680	5.6624
33.753	109.99	92.7679	5.6624
33.762	109.99	92.7679	5.6624
33.770	109.99	92.7679	5.6624
33.778	110.00	92.7679	5.6624
33.787	110.00	92.7679	5.6624
33.795	110.00	92.7679	5.6624
33.803	110.00	92.7680	5.6624
33.812	110.00	92.7679	5.6624
33.820	110.00	92.7679	5.6624
33.828	110.00	92.7679	5.6624
33.837	110.00	92.7679	5.6624
33.845	110.00	92.7680	5.6624
33.853	110.00	92.7680	5.6624
33.862	110.00	92.7677	5.6624
33.870	110.00	92.7676	5.6624
33.878	110.00	92.7677	5.6624
33.887	110.00	92.7678	5.6624
33.895	110.00	92.7678	5.6624
33.903	110.00	92.7678	5.6624
33.912	110.00	92.7679	5.6624
33.920	110.00	92.7679	5.6624
33.928	110.00	92.7677	5.6624
33.937	110.00	92.7678	5.6624
33.945	110.00	92.7680	5.6624
33.953	110.00	92.7679	5.6624
33.962	110.00	92.7678	5.6624
33.970	110.00	92.7677	5.6624
33.978	110.00	92.7675	5.6623
33.987	110.00	92.7674	5.6623
33.995	110.00	92.7675	5.6623
34.003	110.00	92.7676	5.6624
34.012	110.00	92.7676	5.6623
34.020	110.00	92.7676	5.6624
34.028	110.00	92.7677	5.6624
34.037	110.00	92.7678	5.6624
34.045	110.00	92.7678	5.6624
34.053	110.00	92.7677	5.6624
34.062	110.00	92.7675	5.6623
34.070	110.00	92.7675	5.6623
34.078	110.00	92.7677	5.6624
34.087	110.00	92.7677	5.6624
34.095	110.00	92.7676	5.6624
34.103	110.00	92.7677	5.6624
34.112	110.00	92.7678	5.6624
34.120	110.00	92.7679	5.6624
34.128	110.00	92.7681	5.6624
34.137	110.00	92.7682	5.6624
34.145	110.00	92.7682	5.6624
34.153	110.00	92.7681	5.6624
34.162	110.00	92.7682	5.6624
34.170	110.00	92.7681	5.6624
34.178	110.00	92.7680	5.6624
34.187	110.00	92.7679	5.6624
34.195	110.00	92.7681	5.6624
34.203	110.00	92.7682	5.6624
34.212	110.00	92.7682	5.6624
34.220	110.00	92.7684	5.6624
34.228	110.00	92.7683	5.6624
34.237	110.00	92.7681	5.6624
34.245	110.00	92.7680	5.6624
34.253	110.00	92.7681	5.6624
34.262	110.00	92.7680	5.6624
34.270	110.00	92.7681	5.6624
34.278	110.00	92.7681	5.6624
34.287	110.00	92.7680	5.6624
34.295	110.00	92.7678	5.6624
34.303	110.00	92.7678	5.6624
34.312	110.00	92.7678	5.6624
34.320	110.00	92.7680	5.6624
34.328	110.00	92.7681	5.6624
34.337	110.00	92.7679	5.6624
34.345	110.00	92.7678	5.6624
34.353	110.00	92.7679	5.6624
34.362	110.00	92.7680	5.6624
34.370	110.00	92.7679	5.6624
34.378	110.00	92.7678	5.6624
34.387	110.00	92.7678	5.6624
34.395	110.00	92.7678	5.6624
34.403	110.00	92.7677	5.6624
34.412	110.00	92.7677	5.6624
34.420	110.00	92.7679	5.6624
34.428	110.00	92.7679	5.6624
34.437	110.00	92.7678	5.6624
34.445	110.00	92.7679	5.6624
34.453	110.00	92.7678	5.6624
34.462	110.00	92.7678	5.6624
34.470	110.00	92.7679	5.6624
34.478	110.00	92.7679	5.6624
34.487	110.00	92.7681	5.6624
34.495	110.00	92.7680	5.6624
34.503	110.00	92.7679	5.6624
34.512	110.00	92.7682	5.6624
34.520	110.00	92.7681	5.6624
34.528	110.00	92.7682	5.6624
34.537	110.00	92.7681	5.6624
34.545	110.00	92.7682	5.6624
34.553	110.00	92.7682	5.6624
34.562	110.00	92.7682	5.6624
34.570	110.00	92.7680	5.6624
34.578	110.00	92.7681	5.6624
34.587	110.00	92.7681	5.6624
34.595	110.00	92.7680	5.6624
34.603	110.00	92.7679	5.6624
34.612	110.00	92.7678	5.6624
34.620	110.00	92.7678	5.6624
34.628	110.00	92.7679	5.6624
34.637	110.00	92.7680	5.6624
34.645	110.00	92.7678	5.6624
34.653	110.00	92.7677	5.6624
34.662	110.00	92.7678	5.6624
34.670	110.00	92.7677	5.6624
34.678	110.00	92.7678	5.6624
34.687	110.00	92.7679	5.6624
34.695	110.00	92.7679	5.6624
34.703	110.00	92.7678	5.6624
34.712	110.00	92.7680	5.6624
34.720	110.00	92.7681	5.6624
34.728	110.00	92.7681	5.6624
34.737	110.00	92.7681	5.6624
34.745	110.00	92.7681	5.6624
34.753	110.00	92.7681	5.6624
34.762	110.00	92.7681	5.6624
34.770	110.00	92.7681	5.6624
34.778	110.00	92.7681	5.6624
34.787	110.00	92.7680	5.6624
34.795	110.00	92.7680	5.6624
34.803	110.00	92.7680	5.6624
34.812	110.00	92.7680	5.6624
34.820	110.00	92.7680	5.6624
34.828	110.00	92.7681	5.6624
34.837	110.00	92.7682	5.6624
34.845	110.00	92.7681	5.6624
34.853	110.00	92.7681	5.6624
34.862	110.00	92.7683	5.6624
34.870	110.00	92.7682	5.6624
34.878	110.00	92.7682	5.6624
34.887	110.00	92.7683	5.6624
34.895	110.00	92.7683	5.6624
34.903	110.00	92.7684	5.6624
34.912	110.00	92.7687	5.6624
34.920	110.00	92.7687	5.6624
34.928	110.00	92.7686	5.6624
34.937	110.00	92.7687	5.6624
34.945	110.00	92.7687	5.6624
34.953	110.00	92.7687	5.6624
34.962	110.00	92.7686	5.6624
34.970	109.99	92.7685	5.6624
34.978	109.99	92.7686	5.6624
34.987	109.99	92.7684	5.6624
34.995	109.99	92.7683	5.6624
35.003	109.99	92.7683	5.6624
35.012	109.99	92.7686	5.6624
35.020	109.99	92.7687	5.6624
35.028	109.99	92.7686	5.6624
35.037	109.99	92.7683	5.6624
35.045	109.99	92.7683	5.6624
35.053	109.99	92.7683	5.6624
35.062	109.99	92.7683	5.6624
35.070	109.99	92.7682	5.6624
35.078	109.99	92.7682	5.6624
35.087	109.99	92.7684	5.6624
35.095	109.99	92.7683	5.6624
35.103	109.99	92.7683	5.6624
35.112	109.99	92.7684	5.6624
35.120	109.99	92.7685	5.6624
35.128	109.99	92.7684	5.6624
35.137	109.99	92.7684	5.6624
35.145	109.99	92.7685	5.6624
35.153	109.98	92.7685	5.6624
35.162	109.98	92.7684	5.6624
35.170	109.98	92.7685	5.6624
35.178	109.98	92.7685	5.6624
35.187	109.98	92.7686	5.6624
35.195	109.98	92.7686	5.6624
35.203	109.98	92.7687	5.6624
35.212	109.98	92.7689	5.6624
35.220	109.98	92.7689	5.6624
35.228	109.98	92.7689	5.6624
35.237	109.98	92.7689	5.6624
35.245	109.98	92.7689	5.6624
35.253	109.98	92.7688	5.6624
35.262	109.98	92.7688	5.6624
35.270	109.98	92.7690	5.6624
35.278	109.98	92.7689	5.6624
35.287	109.98	92.7687	5.6624
35.295	109.98	92.7688	5.6624
35.303	109.98	92.7690	5.6624
35.312	109.98	92.7691	5.6624
35.320	109.99	92.7690	5.6624
35.328	109.99	92.7690	5.6624
35.337	109.99	92.7690	5.6624
35.345	109.99	92.7688	5.6624
35.353	109.99	92.7688	5.6624
35.362	109.99	92.7688	5.6624
35.370	109.99	92.7688	5.6624
35.378	109.99	92.7688	5.6624
35.387	109.99	92.7690	5.6624
35.395	109.99	92.7690	5.6624
35.403	109.99	92.7690	5.6624
35.412	109.99	92.7690	5.6624
35.420	109.99	92.7690	5.6624
35.428	109.99	92.7688	5.6624
35.437	109.99	92.7685	5.6624
35.445	109.99	92.7684	5.6624
35.453	109.99	92.7685	5.6624
35.462	109.99	92.7687	5.6624
35.470	109.99	92.7687	5.6624
35.478	109.99	92.7685	5.6624
35.487	109.99	92.7683	5.6624
35.495	109.99	92.7680	5.6624
35.503	109.99	92.7681	5.6624
35.512	110.00	92.7681	5.6624
35.520	110.00	92.7680	5.6624
35.528	110.00	92.7679	5.6624
35.537	110.00	92.7680	5.6624
35.545	110.00	92.7680	5.6624
35.553	110.00	92.7679	5.6624
35.562	110.00	92.7680	5.6624
35.570	110.00	92.7681	5.6624
35.578	110.00	92.7682	5.6624
35.587	110.00	92.7681	5.6624
35.595	110.00	92.7679	5.6624
35.603	110.00	92.7676	5.6624
35.612	110.00	92.7677	5.6624
35.620	110.00	92.7678	5.6624
35.628	110.00	92.7678	5.6624
35.637	110.00	92.7679	5.6624
35.645	110.00	92.7678	5.6624
35.653	110.00	92.7678	5.6624
35.662	110.00	92.7677	5.6624
35.670	110.01	92.7675	5.6623
35.678	110.01	92.7673	5.6623
35.687	110.01	92.7674	5.6623
35.695	110.01	92.7674	5.6623
35.703	110.01	92.7675	5.6623
35.712	110.01	92.7676	5.6623
35.720	110.01	92.7675	5.6623
35.728	110.01	92.7675	5.6623
35.737	110.01	92.7675	5.6623
35.745	110.01	92.7676	5.6624
35.753	110.01	92.7677	5.6624
35.762	110.01	92.7677	5.6624
35.770	110.01	92.7675	5.6623
35.778	110.01	92.7676	5.6623
35.787	110.01	92.7677	5.6624
35.795	110.01	92.7674	5.6623
35.803	110.01	92.7673	5.6623
35.812	110.01	92.7674	5.6623
35.820	110.01	92.7673	5.6623
35.828	110.01	92.7674	5.6623
35.837	110.01	92.7675	5.6623
35.845	110.01	92.7675	5.6623
35.853	110.01	92.7675	5.6623
35.862	110.01	92.7674	5.6623
35.870	110.01	92.7673	5.6623
35.878	110.01	92.7673	5.6623
35.887	110.01	92.7674	5.6623
35.895	110.01	92.7674	5.6623
35.903	110.01	92.7674	5.6623
35.912	110.01	92.7674	5.6623
35.920	110.01	92.7674	5.6623
35.928	110.01	92.7673	5.6623
35.937	110.01	92.7674	5.6623
35.945	110.01	92.7677	5.6624
35.953	110.01	92.7679	5.6624
35.962	110.01	92.7679	5.6624
35.970	110.01	92.7678	5.6624
35.978	110.01	92.7678	5.6624
35.987	110.00	92.7678	5.6624
35.995	110.00	92.7678	5.6624
36.003	110.00	92.7678	5.6624
36.012	110.00	92.7679	5.6624
36.020	110.00	92.7679	5.6624
36.028	110.00	92.7680	5.6624
36.037	110.00	92.7681	5.6624
36.045	110.00	92.7681	5.6624
36.053	110.00	92.7683	5.6624
36.062	110.00	92.7684	5.6624
36.070	110.00	92.7685	5.6624
36.078	110.00	92.7685	5.6624
36.087	110.00	92.7685	5.6624
36.095	110.00	92.7687	5.6624
36.103	110.00	92.7688	5.6624
36.112	110.00	92.7689	5.6624
36.120	110.00	92.7690	5.6624
36.128	110.00	92.7690	5.6624
36.137	110.00	92.7690	5.6624
36.145	110.00	92.7690	5.6624
36.153	110.00	92.7691	5.6624
36.162	110.00	92.7693	5.6625
36.170	110.00	92.7693	5.6625
36.178	110.00	92.7694	5.6625
36.187	110.00	92.7696	5.6625
36.195	110.00	92.7696	5.6625
36.203	110.00	92.7694	5.6625
36.212	110.00	92.7694	5.6625
36.220	110.00	92.7693	5.6625
36.228	110.00	92.7694	5.6625
36.237	110.00	92.7696	5.6625
36.245	110.00	92.7695	5.6625
36.253	110.00	92.7694	5.6625
36.262	110.00	92.7693	5.6625
36.270	110.00	92.7693	5.6625
36.278	110.00	92.7694	5.6625
36.287	110.00	92.7694	5.6625
36.295	110.00	92.7694	5.6625
36.303	110.00	92.7695	5.6625
36.312	110.00	92.7695	5.6625
36.320	110.00	92.7694	5.6625
36.328	110.00	92.7696	5.6625
36.337	110.00	92.7695	5.6625
36.345	110.00	92.7694	5.6625
36.353	110.00	92.7694	5.6625
36.362	110.00	92.7694	5.6625
36.370	110.00	92.7694	5.6625
36.378	110.00	92.7693	5.6625
36.387	110.00	92.7695	5.6625
36.395	110.00	92.7696	5.6625
36.403	110.00	92.7695	5.6625
36.412	110.00	92.7694	5.6625
36.420	110.00	92.7694	5.6625
36.428	110.00	92.7692	5.6625
36.437	110.00	92.7692	5.6624
36.445	110.00	92.7692	5.6624
36.453	110.00	92.7691	5.6624
36.462	110.00	92.7691	5.6624
36.470	110.00	92.7691	5.6624
36.478	110.00	92.7691	5.6624
36.487	110.00	92.7690	5.6624
36.495	110.00	92.7690	5.6624
36.503	110.00	92.7690	5.6624
36.512	110.00	92.7689	5.6624
36.520	110.00	92.7688	5.6624
36.528	109.99	92.7689	5.6624
36.537	109.99	92.7689	5.6624
36.545	109.99	92.7688	5.6624
36.553	109.99	92.7687	5.6624
36.562	109.99	92.7688	5.6624
36.570	109.99	92.7689	5.6624
36.578	109.99	92.7688	5.6624
36.587	109.99	92.7689	5.6624
36.595	110.00	92.7688	5.6624
36.603	110.00	92.7687	5.6624
36.612	110.00	92.7688	5.6624
36.620	110.00	92.7687	5.6624
36.628	110.00	92.7689	5.6624
36.637	110.00	92.7689	5.6624
36.645	110.00	92.7689	5.6624
36.653	110.00	92.7690	5.6624
36.662	110.00	92.7689	5.6624
36.670	110.00	92.7689	5.6624
36.678	110.00	92.7690	5.6624
36.687	110.00	92.7690	5.6624
36.695	110.00	92.7690	5.6624
36.703	110.00	92.7691	5.6624
36.712	110.00	92.7691	5.6624
36.720	110.00	92.7691	5.6624
36.728	110.00	92.7691	5.6624
36.737	110.00	92.7692	5.6624
36.745	110.00	92.7692	5.6625
36.753	110.00	92.7691	5.6624
36.762	110.00	92.7689	5.6624
36.770	110.00	92.7690	5.6624
36.778	110.00	92.7692	5.6624
36.787	110.00	92.7693	5.6625
36.795	110.01	92.7692	5.6624
36.803	110.01	92.7691	5.6624
36.812	110.01	92.7690	5.6624
36.820	110.01	92.7690	5.6624
36.828	110.01	92.7690	5.6624
36.837	110.01	92.7690	5.6624
36.845	110.01	92.7690	5.6624
36.853	110.01	92.7691	5.6624
36.862	110.01	92.7693	5.6625
36.870	110.01	92.7693	5.6625
36.878	110.01	92.7692	5.6624
36.887	110.01	92.7692	5.6624
36.895	110.01	92.7691	5.6624
36.903	110.01	92.7691	5.6624
36.912	110.01	92.7692	5.6624
36.920	110.01	92.7694	5.6625
36.928	110.01	92.7697	5.6625
36.937	110.01	92.7696	5.6625
36.945	110.01	92.7694	5.6625
36.953	110.01	92.7694	5.6625
36.962	110.01	92.7694	5.6625
36.970	110.01	92.7696	5.6625
36.978	110.01	92.7695	5.6625
36.987	110.01	92.7695	5.6625
36.995	110.01	92.7694	5.6625
37.003	110.01	92.7694	5.6625
37.012	110.01	92.7694	5.6625
37.020	110.01	92.7694	5.6625
37.028	110.01	92.7695	5.6625
37.037	110.01	92.7698	5.6625
37.045	110.01	92.7700	5.6625
37.053	110.01	92.7701	5.6625
37.062	110.01	92.7700	5.6625
37.070	110.01	92.7699	5.6625
37.078	110.01	92.7698	5.6625
37.087	110.01	92.7698	5.6625
37.095	110.01	92.7696	5.6625
37.103	110.01	92.7698	5.6625
37.112	110.01	92.7700	5.6625
37.120	110.01	92.7701	5.6625
37.128	110.01	92.7702	5.6625
37.137	110.01	92.7703	5.6625
37.145	110.01	92.7702	5.6625
37.153	110.01	92.7704	5.6625
37.162	110.01	92.7705	5.6625
37.170	110.01	92.7705	5.6625
37.178	110.01	92.7704	5.6625
37.187	110.01	92.7705	5.6625
37.195	110.01	92.7705	5.6625
37.203	110.01	92.7704	5.6625
37.212	110.01	92.7703	5.6625
37.220	110.01	92.7701	5.6625
37.228	110.00	92.7701	5.6625
37.237	110.00	92.7700	5.6625
37.245	110.00	92.7702	5.6625
37.253	110.00	92.7702	5.6625
37.262	110.00	92.7701	5.6625
37.270	110.00	92.7703	5.6625
37.278	110.00	92.7703	5.6625
37.287	110.00	92.7701	5.6625
37.295	110.00	92.7700	5.6625
37.303	110.00	92.7699	5.6625
37.312	110.00	92.7698	5.6625
37.320	110.00	92.7699	5.6625
37.328	110.00	92.7700	5.6625
37.337	110.00	92.7701	5.6625
37.345	110.00	92.7701	5.6625
37.353	110.00	92.7702	5.6625
37.362	110.00	92.7700	5.6625
37.370	110.00	92.7698	5.6625
37.378	110.00	92.7697	5.6625
37.387	110.00	92.7696	5.6625
37.395	110.00	92.7698	5.6625
37.403	110.00	92.7696	5.6625
37.412	110.00	92.7694	5.6625
37.420	110.00	92.7693	5.6625
37.428	110.00	92.7691	5.6624
37.437	110.00	92.7691	5.6624
37.445	110.01	92.7691	5.6624
37.453	110.01	92.7692	5.6624
37.462	110.01	92.7693	5.6625
37.470	110.01	92.7694	5.6625
37.478	110.01	92.7695	5.6625
37.487	110.01	92.7693	5.6625
37.495	110.01	92.7691	5.6624
37.503	110.01	92.7689	5.6624

[step]
Ramp 100.00 °C/min to 950.00 °C
Time	Temperature	Weight	Weight
min	°C	%	mg
37.512	110.01	92.7690	5.6624
37.520	110.01	92.7691	5.6624
37.528	110.01	92.7691	5.6624
37.537	110.01	92.7691	5.6624
37.545	110.02	92.7692	5.6624
37.553	110.03	92.7697	5.6625
37.562	110.04	92.7706	5.6625
37.570	110.06	92.7717	5.6626
37.578	110.09	92.7730	5.6627
37.587	110.13	92.7746	5.6628
37.595	110.19	92.7764	5.6629
37.603	110.25	92.7783	5.6630
37.612	110.33	92.7804	5.6631
37.620	110.43	92.7825	5.6633
37.628	110.54	92.7848	5.6634
37.637	110.67	92.7870	5.6635
37.645	110.82	92.7893	5.6637
37.653	110.98	92.7915	5.6638
37.662	111.17	92.7939	5.6640
37.670	111.37	92.7962	5.6641
37.678	111.59	92.7986	5.6642
37.687	111.83	92.8009	5.6644
37.695	112.09	92.8029	5.6645
37.703	112.37	92.8048	5.6646
37.712	112.67	92.8068	5.6647
37.720	112.98	92.8088	5.6649
37.728	113.31	92.8108	5.6650
37.737	113.66	92.8125	5.6651
37.745	114.03	92.8140	5.6652
37.753	114.41	92.8157	5.6653
37.762	114.81	92.8171	5.6654
37.770	115.23	92.8183	5.6654
37.778	115.66	92.8195	5.6655
37.787	116.11	92.8207	5.6656
37.795	116.57	92.8219	5.6657
37.803	117.04	92.8228	5.6657
37.812	117.53	92.8236	5.6658
37.820	118.04	92.8248	5.6658
37.828	118.56	92.8260	5.6659
37.837	119.09	92.8268	5.6660
37.845	119.63	92.8275	5.6660
37.853	120.19	92.8283	5.6661
37.862	120.76	92.8291	5.6661
37.870	121.35	92.8297	5.6661
37.878	121.94	92.8303	5.6662
37.887	122.55	92.8310	5.6662
37.895	123.17	92.8312	5.6662
37.903	123.81	92.8316	5.6663
37.912	124.45	92.8320	5.6663
37.920	125.10	92.8326	5.6663
37.928	125.77	92.8329	5.6663
37.937	126.44	92.8329	5.6663
37.945	127.12	92.8331	5.6663
37.953	127.81	92.8332	5.6664
37.962	128.51	92.8331	5.6663
37.970	129.22	92.8329	5.6663
37.978	129.93	92.8326	5.6663
37.987	130.65	92.8322	5.6663
37.995	131.37	92.8317	5.6663
38.003	132.10	92.8313	5.6662
38.012	132.83	92.8308	5.6662
38.020	133.57	92.8303	5.6662
38.028	134.32	92.8298	5.6662
38.037	135.06	92.8295	5.6661
38.045	135.81	92.8293	5.6661
38.053	136.57	92.8287	5.6661
38.062	137.33	92.8282	5.6660
38.070	138.09	92.8278	5.6660
38.078	138.85	92.8275	5.6660
38.087	139.62	92.8269	5.6660
38.095	140.39	92.8262	5.6659
38.103	141.16	92.8256	5.6659
38.112	141.94	92.8249	5.6658
38.120	142.72	92.8242	5.6658
38.128	143.50	92.8237	5.6658
38.137	144.28	92.8233	5.6658
38.145	145.07	92.8229	5.6657
38.153	145.85	92.8221	5.6657
38.162	146.65	92.8215	5.6656
38.170	147.44	92.8210	5.6656
38.178	148.23	92.8204	5.6656
38.187	149.03	92.8199	5.6655
38.195	149.83	92.8195	5.6655
38.203	150.64	92.8190	5.6655
38.212	151.44	92.8185	5.6655
38.220	152.25	92.8181	5.6654
38.228	153.05	92.8174	5.6654
38.237	153.86	92.8168	5.6654
38.245	154.68	92.8163	5.6653
38.253	155.49	92.8158	5.6653
38.262	156.30	92.8151	5.6652
38.270	157.12	92.8144	5.6652
38.278	157.93	92.8138	5.6652
38.287	158.75	92.8135	5.6652
38.295	159.57	92.8129	5.6651
38.303	160.39	92.8119	5.6651
38.312	161.20	92.8113	5.6650
38.320	162.02	92.8107	5.6650
38.328	162.84	92.8102	5.6650
38.337	163.66	92.8099	5.6649
38.345	164.48	92.8095	5.6649
38.353	165.30	92.8088	5.6649
38.362	166.12	92.8081	5.6648
38.370	166.94	92.8074	5.6648
38.378	167.76	92.8072	5.6648
38.387	168.58	92.8068	5.6647
38.395	169.40	92.8062	5.6647
38.403	170.22	92.8057	5.6647
38.412	171.04	92.8050	5.6646
38.420	171.87	92.8044	5.6646
38.428	172.69	92.8040	5.6646
38.437	173.51	92.8034	5.6645
38.445	174.34	92.8031	5.6645
38.453	175.16	92.8024	5.6645
38.462	175.99	92.8016	5.6644
38.470	176.82	92.8011	5.6644
38.478	177.64	92.8006	5.6644
38.487	178.47	92.8001	5.6643
38.495	179.30	92.7996	5.6643
38.503	180.13	92.7993	5.6643
38.512	180.96	92.7987	5.6642
38.520	181.79	92.7981	5.6642
38.528	182.63	92.7976	5.6642
38.537	183.46	92.7971	5.6642
38.545	184.29	92.7966	5.6641
38.553	185.12	92.7962	5.6641
38.562	185.95	92.7954	5.6640
38.570	186.78	92.7946	5.6640
38.578	187.61	92.7941	5.6640
38.587	188.44	92.7934	5.6639
38.595	189.27	92.7927	5.6639
38.603	190.10	92.7923	5.6639
38.612	190.93	92.7918	5.6638
38.620	191.76	92.7909	5.6638
38.628	192.59	92.7902	5.6637
38.637	193.42	92.7895	5.6637
38.645	194.25	92.7890	5.6637
38.653	195.08	92.7885	5.6636
38.662	195.91	92.7880	5.6636
38.670	196.74	92.7875	5.6636
38.678	197.56	92.7868	5.6635
38.687	198.39	92.7863	5.6635
38.695	199.22	92.7860	5.6635
38.703	200.05	92.7855	5.6634
38.712	200.89	92.7849	5.6634
38.720	201.72	92.7839	5.6633
38.728	202.55	92.7832	5.6633
38.737	203.38	92.7827	5.6633
38.745	204.22	92.7818	5.6632
38.753	205.05	92.7809	5.6632
38.762	205.88	92.7801	5.6631
38.770	206.72	92.7793	5.6631
38.778	207.55	92.7783	5.6630
38.787	208.39	92.7775	5.6630
38.795	209.22	92.7764	5.6629
38.803	210.06	92.7753	5.6628
38.812	210.89	92.7745	5.6628
38.820	211.72	92.7734	5.6627
38.828	212.56	92.7724	5.6626
38.837	213.39	92.7714	5.6626
38.845	214.23	92.7702	5.6625
38.853	215.06	92.7691	5.6624
38.862	215.89	92.7678	5.6624
38.870	216.72	92.7667	5.6623
38.878	217.55	92.7653	5.6622
38.887	218.38	92.7640	5.6621
38.895	219.21	92.7628	5.6621
38.903	220.05	92.7617	5.6620
38.912	220.88	92.7604	5.6619
38.920	221.71	92.7589	5.6618
38.928	222.54	92.7574	5.6617
38.937	223.37	92.7561	5.6617
38.945	224.20	92.7546	5.6616
38.953	225.03	92.7531	5.6615
38.962	225.86	92.7513	5.6614
38.970	226.69	92.7493	5.6612
38.978	227.52	92.7476	5.6611
38.987	228.36	92.7459	5.6610
38.995	229.19	92.7444	5.6609
39.003	230.02	92.7423	5.6608
39.012	230.86	92.7406	5.6607
39.020	231.69	92.7382	5.6606
39.028	232.53	92.7356	5.6604
39.037	233.36	92.7334	5.6603
39.045	234.20	92.7314	5.6601
39.053	235.03	92.7290	5.6600
39.062	235.87	92.7263	5.6598
39.070	236.70	92.7236	5.6597
39.078	237.54	92.7208	5.6595
39.087	238.37	92.7177	5.6593
39.095	239.20	92.7145	5.6591
39.103	240.04	92.7114	5.6589
39.112	240.87	92.7081	5.6587
39.120	241.70	92.7048	5.6585
39.128	242.53	92.7013	5.6583
39.137	243.37	92.6979	5.6581
39.145	244.20	92.6943	5.6579
39.153	245.03	92.6904	5.6576
39.162	245.86	92.6863	5.6574
39.170	246.69	92.6824	5.6572
39.178	247.52	92.6783	5.6569
39.187	248.35	92.6740	5.6566
39.195	249.18	92.6695	5.6564
39.203	250.01	92.6648	5.6561
39.212	250.85	92.6602	5.6558
39.220	251.68	92.6552	5.6555
39.228	252.51	92.6501	5.6552
39.237	253.34	92.6447	5.6549
39.245	254.18	92.6395	5.6545
39.253	255.01	92.6338	5.6542
39.262	255.84	92.6277	5.6538
39.270	256.68	92.6217	5.6534
39.278	257.51	92.6156	5.6531
39.287	258.35	92.6094	5.6527
39.295	259.18	92.6029	5.6523
39.303	260.02	92.5964	5.6519
39.312	260.85	92.5898	5.6515
39.320	261.69	92.5826	5.6511
39.328	262.52	92.5751	5.6506
39.337	263.36	92.5676	5.6501
39.345	264.19	92.5598	5.6497
39.353	265.02	92.5518	5.6492
39.362	265.86	92.5438	5.6487
39.370	266.69	92.5352	5.6482
39.378	267.52	92.5263	5.6476
39.387	268.35	92.5171	5.6471
39.395	269.18	92.5076	5.6465
39.403	270.02	92.4959	5.6458
39.412	270.85	92.4848	5.6451
39.420	271.68	92.4750	5.6445
39.428	272.51	92.4635	5.6438
39.437	273.34	92.4508	5.6430
39.445	274.17	92.4393	5.6423
39.453	275.00	92.4276	5.6416
39.462	275.83	92.4144	5.6408
39.470	276.66	92.3999	5.6399
39.478	277.49	92.3829	5.6389
39.487	278.33	92.3665	5.6379
39.495	279.16	92.3491	5.6368
39.503	279.99	92.3323	5.6358
39.512	280.83	92.3100	5.6344
39.520	281.66	92.2818	5.6327
39.528	282.49	92.2580	5.6312
39.537	283.33	92.2329	5.6297
39.545	284.16	92.2092	5.6283
39.553	285.00	92.1823	5.6266
39.562	285.83	92.1503	5.6247
39.570	286.67	92.1172	5.6227
39.578	287.50	92.0822	5.6205
39.587	288.34	92.0419	5.6181
39.595	289.17	92.0051	5.6158
39.603	290.00	91.9753	5.6140
39.612	290.84	91.9381	5.6117
39.620	291.67	91.8921	5.6089
39.628	292.50	91.8447	5.6060
39.637	293.33	91.8040	5.6035
39.645	294.16	91.7633	5.6011
39.653	295.00	91.7186	5.5983
39.662	295.83	91.6713	5.5954
39.670	296.66	91.6237	5.5925
39.678	297.49	91.5769	5.5897
39.687	298.32	91.5327	5.5870
39.695	299.15	91.4812	5.5838
39.703	299.98	91.4348	5.5810
39.712	300.81	91.3828	5.5778
39.720	301.64	91.3282	5.5745
39.728	302.48	91.2700	5.5709
39.737	303.31	91.2105	5.5673
39.745	304.14	91.1520	5.5637
39.753	304.97	91.0932	5.5601
39.762	305.81	91.0330	5.5565
39.770	306.64	90.9712	5.5527
39.778	307.48	90.9108	5.5490
39.787	308.31	90.8458	5.5450
39.795	309.14	90.7750	5.5407
39.803	309.98	90.7047	5.5364
39.812	310.81	90.6263	5.5316
39.820	311.65	90.5455	5.5267
39.828	312.48	90.4743	5.5224
39.837	313.32	90.4011	5.5179
39.845	314.15	90.3274	5.5134
39.853	314.98	90.2491	5.5086
39.862	315.82	90.1504	5.5026
39.870	316.65	90.0501	5.4965
39.878	317.48	89.9597	5.4910
39.887	318.31	89.8670	5.4853
39.895	319.14	89.7759	5.4797
39.903	319.98	89.6685	5.4732
39.912	320.81	89.5443	5.4656
39.920	321.64	89.4280	5.4585
39.928	322.47	89.3130	5.4515
39.937	323.30	89.1960	5.4443
39.945	324.13	89.0616	5.4361
39.953	324.96	88.9151	5.4272
39.962	325.79	88.7695	5.4183
39.970	326.62	88.6082	5.4085
39.978	327.45	88.4301	5.3976
39.987	328.29	88.2659	5.3876
39.995	329.12	88.0677	5.3755
40.003	329.95	87.8601	5.3628
40.012	330.79	87.6505	5.3500
40.020	331.62	87.4106	5.3354
40.028	332.46	87.1699	5.3207
40.037	333.29	86.9174	5.3053
40.045	334.13	86.6306	5.2878
40.053	334.96	86.3529	5.2708
40.062	335.80	86.0257	5.2508
40.070	336.63	85.6758	5.2295
40.078	337.46	85.3121	5.2073
40.087	338.30	84.9243	5.1836
40.095	339.13	84.5105	5.1584
40.103	339.96	84.0747	5.1318
40.112	340.80	83.5987	5.1027
40.120	341.63	83.0983	5.0722
40.128	342.46	82.5608	5.0393
40.137	343.29	81.9939	5.0047
40.145	344.12	81.4007	4.9685
40.153	344.95	80.7681	4.9299
40.162	345.78	80.1103	4.8898
40.170	346.61	79.4050	4.8467
40.178	347.44	78.6482	4.8005
40.187	348.27	77.8759	4.7534
40.195	349.10	77.0645	4.7039
40.203	349.94	76.2059	4.6515
40.212	350.77	75.3042	4.5964
40.220	351.60	74.3716	4.5395
40.228	352.43	73.3692	4.4783
40.237	353.27	72.3490	4.4160
40.245	354.10	71.2807	4.3508
40.253	354.93	70.1682	4.2829
40.262	355.77	69.0094	4.2122
40.270	356.60	67.8188	4.1395
40.278	357.44	66.5653	4.0630
40.287	358.27	65.2710	3.9840
40.295	359.11	63.9369	3.9026
40.303	359.94	62.5655	3.8189
40.312	360.77	61.1536	3.7327
40.320	361.61	59.6977	3.6438
40.328	362.44	58.2007	3.5525
40.337	363.27	56.6480	3.4577
40.345	364.11	55.0687	3.3613
40.353	364.94	53.4584	3.2630
40.362	365.77	51.8119	3.1625
40.370	366.60	50.1141	3.0589
40.378	367.43	48.3755	2.9527
40.387	368.26	46.6188	2.8455
40.395	369.10	44.8300	2.7363
40.403	369.93	43.0149	2.6255
40.412	370.76	41.1615	2.5124
40.420	371.59	39.3072	2.3992
40.428	372.42	37.4007	2.2829
40.437	373.25	35.5102	2.1675
40.445	374.08	33.5837	2.0499
40.453	374.92	31.6735	1.9333
40.462	375.75	29.7643	1.8168
40.470	376.58	27.8679	1.7010
40.478	377.42	25.9988	1.5869
40.487	378.25	24.1666	1.4751
40.495	379.09	22.3683	1.3653
40.503	379.92	20.6254	1.2589
40.512	380.76	18.9835	1.1587
40.520	381.59	17.4209	1.0633
40.528	382.43	15.9630	0.9743
40.537	383.26	14.6405	0.8936
40.545	384.10	13.4486	0.8209
40.553	384.93	12.3942	0.7565
40.562	385.76	11.4995	0.7019
40.570	386.60	10.7626	0.6569
40.578	387.43	10.2021	0.6227
40.587	388.26	9.7709	0.5964
40.595	389.09	9.4542	0.5771
40.603	389.93	9.2280	0.5633
40.612	390.76	9.0478	0.5523
40.620	391.59	8.9304	0.5451
40.628	392.42	8.8245	0.5386
40.637	393.25	8.7385	0.5334
40.645	394.08	8.6683	0.5291
40.653	394.91	8.6062	0.5253
40.662	395.74	8.5330	0.5208
40.670	396.57	8.4751	0.5173
40.678	397.40	8.4274	0.5144
40.687	398.23	8.3827	0.5117
40.695	399.06	8.3452	0.5094
40.703	399.89	8.3004	0.5066
40.712	400.73	8.2675	0.5046
40.720	401.56	8.2387	0.5029
40.728	402.39	8.2054	0.5008
40.737	403.22	8.1746	0.4990
40.745	404.05	8.1426	0.4970
40.753	404.88	8.1091	0.4950
40.762	405.71	8.0808	0.4932
40.770	406.55	8.0511	0.4914
40.778	407.38	8.0181	0.4894
40.787	408.21	7.9904	0.4877
40.795	409.05	7.9661	0.4862
40.803	409.88	7.9401	0.4847
40.812	410.71	7.9158	0.4832
40.820	411.54	7.8983	0.4821
40.828	412.38	7.8782	0.4809
40.837	413.21	7.8482	0.4790
40.845	414.04	7.8224	0.4775
40.853	414.87	7.7993	0.4761
40.862	415.70	7.7790	0.4748
40.870	416.53	7.7580	0.4735
40.878	417.36	7.7382	0.4723
40.887	418.19	7.7194	0.4712
40.895	419.02	7.7004	0.4700
40.903	419.85	7.6722	0.4683
40.912	420.68	7.6475	0.4668
40.920	421.51	7.6260	0.4655
40.928	422.34	7.6088	0.4644
40.937	423.18	7.5918	0.4634
40.945	424.01	7.5715	0.4622
40.953	424.84	7.5434	0.4604
40.962	425.67	7.5172	0.4588
40.970	426.51	7.4962	0.4576
40.978	427.34	7.4738	0.4562
40.987	428.17	7.4547	0.4550
40.995	429.01	7.4370	0.4539
41.003	429.84	7.4186	0.4528
41.012	430.67	7.3898	0.4511
41.020	431.51	7.3607	0.4493
41.028	432.34	7.3389	0.4480
41.037	433.17	7.3211	0.4469
41.045	434.01	7.2981	0.4455
41.053	434.84	7.2749	0.4440
41.062	435.67	7.2548	0.4428
41.070	436.50	7.2351	0.4416
41.078	437.34	7.2183	0.4406
41.087	438.17	7.2019	0.4396
41.095	439.00	7.1747	0.4379
41.103	439.83	7.1451	0.4361
41.112	440.66	7.1164	0.4344
41.120	441.49	7.0906	0.4328
41.128	442.32	7.0702	0.4315
41.137	443.15	7.0490	0.4303
41.145	443.98	7.0310	0.4292
41.153	444.81	7.0151	0.4282
41.162	445.64	6.9961	0.4270
41.170	446.48	6.9721	0.4256
41.178	447.31	6.9491	0.4242
41.187	448.14	6.9226	0.4225
41.195	448.97	6.8886	0.4205
41.203	449.81	6.8600	0.4187
41.212	450.64	6.8404	0.4175
41.220	451.47	6.8213	0.4164
41.228	452.31	6.7973	0.4149
41.237	453.14	6.7662	0.4130
41.245	453.97	6.7431	0.4116
41.253	454.81	6.7197	0.4102
41.262	455.64	6.6925	0.4085
41.270	456.47	6.6685	0.4070
41.278	457.30	6.6483	0.4058
41.287	458.14	6.6245	0.4043
41.295	458.97	6.5982	0.4027
41.303	459.80	6.5685	0.4009
41.312	460.63	6.5404	0.3992
41.320	461.46	6.5170	0.3978
41.328	462.29	6.4936	0.3964
41.337	463.12	6.4669	0.3947
41.345	463.95	6.4400	0.3931
41.353	464.78	6.4128	0.3914
41.362	465.62	6.3846	0.3897
41.370	466.45	6.3573	0.3880
41.378	467.28	6.3316	0.3865
41.387	468.11	6.3088	0.3851
41.395	468.94	6.2790	0.3833
41.403	469.78	6.2489	0.3814
41.412	470.61	6.2254	0.3800
41.420	471.44	6.1958	0.3782
41.428	472.28	6.1642	0.3763
41.437	473.11	6.1284	0.3741
41.445	473.95	6.1028	0.3725
41.453	474.78	6.0670	0.3703
41.462	475.61	6.0333	0.3683
41.470	476.44	6.0072	0.3667
41.478	477.28	5.9742	0.3647
41.487	478.11	5.9387	0.3625
41.495	478.94	5.9035	0.3603
41.503	479.77	5.8774	0.3587
41.512	480.60	5.8478	0.3569
41.520	481.44	5.8111	0.3547
41.528	482.27	5.7766	0.3526
41.537	483.10	5.7435	0.3506
41.545	483.93	5.7099	0.3485
41.553	484.76	5.6791	0.3466
41.562	485.59	5.6533	0.3451
41.570	486.42	5.6187	0.3430
41.578	487.25	5.5817	0.3407
41.587	488.09	5.5571	0.3392
41.595	488.92	5.5133	0.3365
41.603	489.75	5.4659	0.3336
41.612	490.59	5.4267	0.3312
41.620	491.42	5.3907	0.3290
41.628	492.25	5.3565	0.3269
41.637	493.09	5.3199	0.3247
41.645	493.92	5.2883	0.3228
41.653	494.75	5.2427	0.3200
41.662	495.59	5.2063	0.3178
41.670	496.42	5.1680	0.3154
41.678	497.25	5.1067	0.3117
41.687	498.08	5.0600	0.3089
41.695	498.92	5.0279	0.3069
41.703	499.75	4.9850	0.3043
41.712	500.58	4.9324	0.3011
41.720	501.41	4.8869	0.2983
41.728	502.24	4.8488	0.2960
41.737	503.07	4.8155	0.2939
41.745	503.90	4.7652	0.2909
41.753	504.73	4.7137	0.2877
41.762	505.57	4.6638	0.2847
41.770	506.40	4.6137	0.2816
41.778	507.23	4.5669	0.2788
41.787	508.06	4.5117	0.2754
41.795	508.89	4.4602	0.2722
41.803	509.73	4.4068	0.2690
41.812	510.56	4.3534	0.2657
41.820	511.39	4.2933	0.2621
41.828	512.23	4.2326	0.2583
41.837	513.06	4.1793	0.2551
41.845	513.89	4.1244	0.2517
41.853	514.73	4.0539	0.2474
41.862	515.56	3.9879	0.2434
41.870	516.39	3.9295	0.2399
41.878	517.23	3.8805	0.2369
41.887	518.06	3.8207	0.2332
41.895	518.89	3.7349	0.2280
41.903	519.72	3.6612	0.2235
41.912	520.55	3.6012	0.2198
41.920	521.38	3.5205	0.2149
41.928	522.22	3.4354	0.2097
41.937	523.05	3.3679	0.2056
41.945	523.88	3.2833	0.2004
41.953	524.71	3.1984	0.1952
41.962	525.54	3.1271	0.1909
41.970	526.37	3.0283	0.1848
41.978	527.21	2.9198	0.1782
41.987	528.04	2.8236	0.1723
41.995	528.87	2.7205	0.1661
42.003	529.70	2.5483	0.1555
42.012	530.54	2.3315	0.1423
42.020	531.37	2.1401	0.1306
42.028	532.21	1.9899	0.1215
42.037	533.04	1.8609	0.1136
42.045	533.88	1.7069	0.1042
42.053	534.71	1.5398	0.0940
42.062	535.55	1.4081	0.0859
42.070	536.38	1.3062	0.0797
42.078	537.21	1.1943	0.0729
42.087	538.05	1.0756	0.0657
42.095	538.88	0.9912	0.0605
42.103	539.71	0.9235	0.0564
42.112	540.54	0.8817	0.0538
42.120	541.37	0.8635	0.0527
42.128	542.20	0.8326	0.0508
42.137	543.03	0.8130	0.0496
42.145	543.85	0.7991	0.0488
42.153	544.68	0.7733	0.0472
42.162	545.51	0.7532	0.0460
42.170	546.33	0.7352	0.0449
42.178	547.16	0.7198	0.0439
42.187	547.98	0.7050	0.0430
42.195	548.81	0.6914	0.0422
42.203	549.63	0.6745	0.0412
42.212	550.46	0.6584	0.0402
42.220	551.28	0.6406	0.0391
42.228	552.11	0.6261	0.0382
42.237	552.93	0.6145	0.0375
42.245	553.76	0.6040	0.0369
42.253	554.59	0.5915	0.0361
42.262	555.42	0.5809	0.0355
42.270	556.25	0.5692	0.0347
42.278	557.07	0.5590	0.0341
42.287	557.90	0.5522	0.0337
42.295	558.73	0.5451	0.0333
42.303	559.56	0.5372	0.0328
42.312	560.39	0.5292	0.0323
42.320	561.22	0.5213	0.0318
42.328	562.05	0.5136	0.0313
42.337	562.88	0.5061	0.0309
42.345	563.71	0.4982	0.0304
42.353	564.54	0.4908	0.0300
42.362	565.37	0.4831	0.0295
42.370	566.19	0.4753	0.0290
42.378	567.02	0.4683	0.0286
42.387	567.85	0.4613	0.0282
42.395	568.68	0.4543	0.0277
42.403	569.51	0.4475	0.0273
42.412	570.34	0.4405	0.0269
42.420	571.17	0.4334	0.0265
42.428	572.00	0.4272	0.0261
42.437	572.83	0.4212	0.0257
42.445	573.66	0.4153	0.0254
42.453	574.49	0.4099	0.0250
42.462	575.32	0.4041	0.0247
42.470	576.15	0.3984	0.0243
42.478	576.99	0.3933	0.0240
42.487	577.82	0.3882	0.0237
42.495	578.65	0.3841	0.0234
42.503	579.48	0.3806	0.0232
42.512	580.31	0.3758	0.0229
42.520	581.14	0.3711	0.0227
42.528	581.97	0.3665	0.0224
42.537	582.81	0.3625	0.0221
42.545	583.64	0.3589	0.0219
42.553	584.47	0.3556	0.0217
42.562	585.30	0.3525	0.0215
42.570	586.13	0.3490	0.0213
42.578	586.96	0.3458	0.0211
42.587	587.79	0.3429	0.0209
42.595	588.62	0.3400	0.0208
42.603	589.45	0.3379	0.0206
42.612	590.28	0.3354	0.0205
42.620	591.11	0.3326	0.0203
42.628	591.94	0.3303	0.0202
42.637	592.77	0.3283	0.0200
42.645	593.60	0.3259	0.0199
42.653	594.43	0.3233	0.0197
42.662	595.27	0.3213	0.0196
42.670	596.10	0.3195	0.0195
42.678	596.93	0.3176	0.0194
42.687	597.76	0.3157	0.0193
42.695	598.59	0.3141	0.0192
42.703	599.43	0.3121	0.0191
42.712	600.26	0.3098	0.0189
42.720	601.09	0.3082	0.0188
42.728	601.92	0.3067	0.0187
42.737	602.75	0.3056	0.0187
42.745	603.58	0.3050	0.0186
42.753	604.41	0.3040	0.0186
42.762	605.24	0.3021	0.0184
42.770	606.07	0.3011	0.0184
42.778	606.90	0.3000	0.0183
42.787	607.73	0.2991	0.0183
42.795	608.56	0.2978	0.0182
42.803	609.39	0.2963	0.0181
42.812	610.22	0.2957	0.0180
42.820	611.05	0.2949	0.0180
42.828	611.89	0.2937	0.0179
42.837	612.72	0.2924	0.0178
42.845	613.55	0.2916	0.0178
42.853	614.38	0.2905	0.0177
42.862	615.22	0.2894	0.0177
42.870	616.05	0.2885	0.0176
42.878	616.88	0.2876	0.0176
42.887	617.71	0.2869	0.0175
42.895	618.54	0.2862	0.0175
42.903	619.38	0.2860	0.0175
42.912	620.21	0.2860	0.0175
42.920	621.04	0.2863	0.0175
42.928	621.87	0.2856	0.0174
42.937	622.70	0.2850	0.0174
42.945	623.53	0.2841	0.0173
42.953	624.36	0.2836	0.0173
42.962	625.19	0.2831	0.0173
42.970	626.02	0.2829	0.0173
42.978	626.85	0.2829	0.0173
42.987	627.68	0.2834	0.0173
42.995	628.51	0.2834	0.0173
43.003	629.34	0.2826	0.0172
43.012	630.17	0.2816	0.0172
43.020	631.01	0.2814	0.0172
43.028	631.84	0.2817	0.0172
43.037	632.67	0.2816	0.0172
43.045	633.50	0.2813	0.0172
43.053	634.34	0.2812	0.0172
43.062	635.17	0.2806	0.0171
43.070	636.00	0.2800	0.0171
43.078	636.83	0.2795	0.0171
43.087	637.67	0.2785	0.0170
43.095	638.50	0.2773	0.0169
43.103	639.33	0.2775	0.0169
43.112	640.16	0.2773	0.0169
43.120	640.99	0.2764	0.0169
43.128	641.82	0.2764	0.0169
43.137	642.65	0.2761	0.0169
43.145	643.48	0.2763	0.0169
43.153	644.31	0.2757	0.0168
43.162	645.14	0.2756	0.0168
43.170	645.97	0.2755	0.0168
43.178	646.80	0.2751	0.0168
43.187	647.63	0.2749	0.0168
43.195	648.47	0.2752	0.0168
43.203	649.30	0.2748	0.0168
43.212	650.13	0.2743	0.0167
43.220	650.96	0.2742	0.0167
43.228	651.80	0.2739	0.0167
43.237	652.63	0.2737	0.0167
43.245	653.46	0.2734	0.0167
43.253	654.29	0.2735	0.0167
43.262	655.12	0.2734	0.0167
43.270	655.96	0.2734	0.0167
43.278	656.79	0.2739	0.0167
43.287	657.62	0.2744	0.0167
43.295	658.45	0.2745	0.0168
43.303	659.28	0.2739	0.0167
43.312	660.11	0.2730	0.0167
43.320	660.94	0.2734	0.0167
43.328	661.77	0.2743	0.0167
43.337	662.60	0.2744	0.0167
43.345	663.43	0.2747	0.0168
43.353	664.26	0.2748	0.0168
43.362	665.09	0.2740	0.0167
43.370	665.92	0.2733	0.0167
43.378	666.75	0.2732	0.0167
43.387	667.59	0.2731	0.0167
43.395	668.42	0.2737	0.0167
43.403	669.25	0.2739	0.0167
43.412	670.08	0.2744	0.0167
43.420	670.91	0.2749	0.0168
43.428	671.75	0.2749	0.0168
43.437	672.58	0.2751	0.0168
43.445	673.41	0.2753	0.0168
43.453	674.24	0.2741	0.0167
43.462	675.07	0.2726	0.0166
43.470	675.90	0.2723	0.0166
43.478	676.73	0.2730	0.0167
43.487	677.56	0.2724	0.0166
43.495	678.39	0.2723	0.0166
43.503	679.22	0.2728	0.0167
43.512	680.05	0.2736	0.0167
43.520	680.88	0.2741	0.0167
43.528	681.71	0.2741	0.0167
43.537	682.54	0.2749	0.0168
43.545	683.38	0.2749	0.0168
43.553	684.21	0.2769	0.0169
43.562	685.04	0.2784	0.0170
43.570	685.87	0.2786	0.0170
43.578	686.70	0.2787	0.0170
43.587	687.53	0.2793	0.0170
43.595	688.37	0.2799	0.0171
43.603	689.20	0.2797	0.0171
43.612	690.03	0.2795	0.0171
43.620	690.86	0.2794	0.0171
43.628	691.69	0.2798	0.0171
43.637	692.52	0.2812	0.0172
43.645	693.35	0.2820	0.0172
43.653	694.18	0.2815	0.0172
43.662	695.01	0.2817	0.0172
43.670	695.84	0.2823	0.0172
43.678	696.67	0.2828	0.0173
43.687	697.50	0.2829	0.0173
43.695	698.32	0.2831	0.0173
43.703	699.15	0.2836	0.0173
43.712	699.98	0.2835	0.0173
43.720	700.81	0.2840	0.0173
43.728	701.64	0.2846	0.0174
43.737	702.47	0.2855	0.0174
43.745	703.30	0.2856	0.0174
43.753	704.13	0.2856	0.0174
43.762	704.96	0.2863	0.0175
43.770	705.80	0.2876	0.0176
43.778	706.63	0.2879	0.0176
43.787	707.46	0.2878	0.0176
43.795	708.29	0.2883	0.0176
43.803	709.12	0.2891	0.0176
43.812	709.95	0.2896	0.0177
43.820	710.78	0.2900	0.0177
43.828	711.61	0.2901	0.0177
43.837	712.44	0.2899	0.0177
43.845	713.27	0.2902	0.0177
43.853	714.10	0.2915	0.0178
43.862	714.92	0.2923	0.0178
43.870	715.75	0.2927	0.0179
43.878	716.58	0.2927	0.0179
43.887	717.41	0.2920	0.0178
43.895	718.24	0.2929	0.0179
43.903	719.07	0.2935	0.0179
43.912	719.90	0.2931	0.0179
43.920	720.73	0.2931	0.0179
43.928	721.57	0.2928	0.0179
43.937	722.40	0.2933	0.0179
43.945	723.23	0.2941	0.0180
43.953	724.06	0.2948	0.0180
43.962	724.89	0.2949	0.0180
43.970	725.72	0.2949	0.0180
43.978	726.55	0.2952	0.0180
43.987	727.38	0.2956	0.0180
43.995	728.21	0.2959	0.0181
44.003	729.04	0.2968	0.0181
44.012	729.87	0.2974	0.0182
44.020	730.70	0.2972	0.0181
44.028	731.53	0.2974	0.0182
44.037	732.36	0.2981	0.0182
44.045	733.19	0.2984	0.0182
44.053	734.02	0.2989	0.0182
44.062	734.85	0.2999	0.0183
44.070	735.68	0.3004	0.0183
44.078	736.51	0.3001	0.0183
44.087	737.34	0.3003	0.0183
44.095	738.17	0.3001	0.0183
44.103	739.00	0.3002	0.0183
44.112	739.83	0.3013	0.0184
44.120	740.67	0.3023	0.0185
44.128	741.50	0.3024	0.0185
44.137	742.33	0.3029	0.0185
44.145	743.16	0.3028	0.0185
44.153	743.99	0.3029	0.0185
44.162	744.82	0.3032	0.0185
44.170	745.65	0.3035	0.0185
44.178	746.48	0.3036	0.0185
44.187	747.31	0.3038	0.0185
44.195	748.14	0.3039	0.0186
44.203	748.97	0.3041	0.0186
44.212	749.80	0.3039	0.0185
44.220	750.63	0.3034	0.0185
44.228	751.46	0.3035	0.0185
44.237	752.29	0.3039	0.0186
44.245	753.12	0.3041	0.0186
44.253	753.95	0.3039	0.0186
44.262	754.78	0.3040	0.0186
44.270	755.61	0.3044	0.0186
44.278	756.44	0.3047	0.0186
44.287	757.27	0.3050	0.0186
44.295	758.10	0.3050	0.0186
44.303	758.93	0.3048	0.0186
44.312	759.76	0.3050	0.0186
44.320	760.59	0.3052	0.0186
44.328	761.42	0.3053	0.0186
44.337	762.25	0.3059	0.0187
44.345	763.08	0.3068	0.0187
44.353	763.91	0.3072	0.0188
44.362	764.74	0.3073	0.0188
44.370	765.57	0.3077	0.0188
44.378	766.40	0.3087	0.0188
44.387	767.23	0.3098	0.0189
44.395	768.06	0.3095	0.0189
44.403	768.89	0.3090	0.0189
44.412	769.72	0.3089	0.0189
44.420	770.55	0.3094	0.0189
44.428	771.38	0.3098	0.0189
44.437	772.21	0.3100	0.0189
44.445	773.04	0.3102	0.0189
44.453	773.87	0.3107	0.0190
44.462	774.70	0.3107	0.0190
44.470	775.53	0.3107	0.0190
44.478	776.36	0.3113	0.0190
44.487	777.19	0.3108	0.0190
44.495	778.03	0.3113	0.0190
44.503	778.86	0.3121	0.0190
44.512	779.68	0.3122	0.0191
44.520	780.51	0.3125	0.0191
44.528	781.34	0.3125	0.0191
44.537	782.17	0.3124	0.0191
44.545	783.00	0.3127	0.0191
44.553	783.83	0.3131	0.0191
44.562	784.66	0.3130	0.0191
44.570	785.49	0.3126	0.0191
44.578	786.32	0.3131	0.0191
44.587	787.15	0.3135	0.0191
44.595	787.98	0.3133	0.0191
44.603	788.81	0.3134	0.0191
44.612	789.64	0.3135	0.0191
44.620	790.47	0.3134	0.0191
44.628	791.30	0.3137	0.0191
44.637	792.13	0.3147	0.0192
44.645	792.96	0.3151	0.0192
44.653	793.79	0.3154	0.0193
44.662	794.62	0.3162	0.0193
44.670	795.45	0.3166	0.0193
44.678	796.28	0.3164	0.0193
44.687	797.11	0.3165	0.0193
44.695	797.94	0.3168	0.0193
44.703	798.77	0.3175	0.0194
44.712	799.60	0.3184	0.0194
44.720	800.43	0.3187	0.0195
44.728	801.25	0.3187	0.0195
44.737	802.08	0.3191	0.0195
44.745	802.91	0.3196	0.0195
44.753	803.74	0.3195	0.0195
44.762	804.57	0.3192	0.0195
44.770	805.40	0.3191	0.0195
44.778	806.23	0.3190	0.0195
44.787	807.06	0.3198	0.0195
44.795	807.89	0.3208	0.0196
44.803	808.72	0.3213	0.0196
44.812	809.55	0.3221	0.0197
44.820	810.38	0.3215	0.0196
44.828	811.21	0.3210	0.0196
44.837	812.04	0.3218	0.0196
44.845	812.87	0.3226	0.0197
44.853	813.70	0.3223	0.0197
44.862	814.53	0.3223	0.0197
44.870	815.36	0.3227	0.0197
44.878	816.19	0.3227	0.0197
44.887	817.02	0.3235	0.0197
44.895	817.84	0.3247	0.0198
44.903	818.67	0.3242	0.0198
44.912	819.50	0.3232	0.0197
44.920	820.33	0.3235	0.0197
44.928	821.16	0.3244	0.0198
44.937	821.99	0.3249	0.0198
44.945	822.83	0.3252	0.0198
44.953	823.66	0.3254	0.0199
44.962	824.49	0.3253	0.0199
44.970	825.32	0.3244	0.0198
44.978	826.15	0.3246	0.0198
44.987	826.98	0.3258	0.0199
44.995	827.81	0.3263	0.0199
45.003	828.63	0.3267	0.0199
45.012	829.46	0.3275	0.0200
45.020	830.29	0.3280	0.0200
45.028	831.12	0.3279	0.0200
45.037	831.95	0.3277	0.0200
45.045	832.78	0.3280	0.0200
45.053	833.61	0.3283	0.0200
45.062	834.44	0.3293	0.0201
45.070	835.27	0.3291	0.0201
45.078	836.10	0.3287	0.0201
45.087	836.93	0.3288	0.0201
45.095	837.76	0.3293	0.0201
45.103	838.59	0.3289	0.0201
45.112	839.42	0.3291	0.0201
45.120	840.25	0.3297	0.0201
45.128	841.08	0.3294	0.0201
45.137	841.91	0.3293	0.0201
45.145	842.74	0.3302	0.0202
45.153	843.57	0.3313	0.0202
45.162	844.40	0.3311	0.0202
45.170	845.23	0.3308	0.0202
45.178	846.06	0.3306	0.0202
45.187	846.89	0.3300	0.0201
45.195	847.72	0.3302	0.0202
45.203	848.55	0.3301	0.0202
45.212	849.38	0.3312	0.0202
45.220	850.21	0.3323	0.0203
45.228	851.04	0.3319	0.0203
45.237	851.87	0.3321	0.0203
45.245	852.70	0.3326	0.0203
45.253	853.53	0.3328	0.0203
45.262	854.36	0.3327	0.0203
45.270	855.19	0.3324	0.0203
45.278	856.02	0.3328	0.0203
45.287	856.85	0.3335	0.0204
45.295	857.68	0.3342	0.0204
45.303	858.51	0.3341	0.0204
45.312	859.34	0.3341	0.0204
45.320	860.17	0.3343	0.0204
45.328	861.00	0.3342	0.0204
45.337	861.83	0.3349	0.0204
45.345	862.65	0.3357	0.0205
45.353	863.48	0.3359	0.0205
45.362	864.31	0.3358	0.0205
45.370	865.14	0.3355	0.0205
45.378	865.97	0.3358	0.0205
45.387	866.80	0.3363	0.0205
45.395	867.63	0.3365	0.0205
45.403	868.46	0.3365	0.0205
45.412	869.29	0.3361	0.0205
45.420	870.12	0.3366	0.0205
45.428	870.95	0.3371	0.0206
45.437	871.78	0.3370	0.0206
45.445	872.61	0.3373	0.0206
45.453	873.44	0.3378	0.0206
45.462	874.27	0.3380	0.0206
45.470	875.10	0.3376	0.0206
45.478	875.93	0.3380	0.0206
45.487	876.76	0.3388	0.0207
45.495	877.59	0.3396	0.0207
45.503	878.41	0.3412	0.0208
45.512	879.24	0.3416	0.0209
45.520	880.07	0.3410	0.0208
45.528	880.90	0.3404	0.0208
45.537	881.73	0.3406	0.0208
45.545	882.56	0.3409	0.0208
45.553	883.39	0.3417	0.0209
45.562	884.22	0.3426	0.0209
45.570	885.05	0.3423	0.0209
45.578	885.88	0.3420	0.0209
45.587	886.71	0.3415	0.0208
45.595	887.54	0.3413	0.0208
45.603	888.37	0.3423	0.0209
45.612	889.20	0.3425	0.0209
45.620	890.03	0.3426	0.0209
45.628	890.86	0.3426	0.0209
45.637	891.69	0.3422	0.0209
45.645	892.52	0.3424	0.0209
45.653	893.35	0.3427	0.0209
45.662	894.18	0.3425	0.0209
45.670	895.01	0.3431	0.0209
45.678	895.84	0.3431	0.0209
45.687	896.67	0.3430	0.0209
45.695	897.49	0.3434	0.0210
45.703	898.32	0.3434	0.0210
45.712	899.15	0.3445	0.0210
45.720	899.98	0.3449	0.0211
45.728	900.82	0.3451	0.0211
45.737	901.65	0.3459	0.0211
45.745	902.48	0.3462	0.0211
45.753	903.31	0.3458	0.0211
45.762	904.13	0.3456	0.0211
45.770	904.96	0.3455	0.0211
45.778	905.79	0.3462	0.0211
45.787	906.62	0.3474	0.0212
45.795	907.45	0.3473	0.0212
45.803	908.28	0.3470	0.0212
45.812	909.11	0.3471	0.0212
45.820	909.94	0.3468	0.0212
45.828	910.76	0.3466	0.0212
45.837	911.59	0.3469	0.0212
45.845	912.42	0.3473	0.0212
45.853	913.25	0.3476	0.0212
45.862	914.08	0.3480	0.0212
45.870	914.91	0.3483	0.0213
45.878	915.74	0.3481	0.0212
45.887	916.57	0.3483	0.0213
45.895	917.40	0.3488	0.0213
45.903	918.23	0.3493	0.0213
45.912	919.06	0.3489	0.0213
45.920	919.89	0.3495	0.0213
45.928	920.72	0.3502	0.0214
45.937	921.55	0.3502	0.0214
45.945	922.37	0.3503	0.0214
45.953	923.20	0.3502	0.0214
45.962	924.03	0.3506	0.0214
45.970	924.86	0.3509	0.0214
45.978	925.69	0.3504	0.0214
45.987	926.51	0.3506	0.0214
45.995	927.34	0.3521	0.0215
46.003	928.17	0.3534	0.0216
46.012	928.99	0.3541	0.0216
46.020	929.82	0.3532	0.0216
46.028	930.64	0.3529	0.0215
46.037	931.46	0.3534	0.0216
46.045	932.29	0.3545	0.0216
46.053	933.11	0.3550	0.0217

[step]
Isothermal 10.0 min
Time	Temperature	Weight	Weight
min	°C	%	mg
46.062	933.93	0.3543	0.0216
46.070	934.75	0.3542	0.0216
46.078	935.56	0.3552	0.0217
46.087	936.36	0.3548	0.0217
46.095	937.13	0.3534	0.0216
46.103	937.85	0.3531	0.0215
46.112	938.51	0.3539	0.0216
46.120	939.10	0.3544	0.0216
46.128	939.62	0.3541	0.0216
46.137	940.07	0.3541	0.0216
46.145	940.45	0.3540	0.0216
46.153	940.77	0.3541	0.0216
46.162	941.04	0.3543	0.0216
46.170	941.27	0.3542	0.0216
46.178	941.47	0.3548	0.0217
46.187	941.64	0.3552	0.0217
46.195	941.80	0.3554	0.0217
46.203	941.95	0.3562	0.0217
46.212	942.09	0.3569	0.0218
46.220	942.23	0.3570	0.0218
46.228	942.37	0.3567	0.0218
46.237	942.51	0.3570	0.0218
46.245	942.64	0.3572	0.0218
46.253	942.76	0.3572	0.0218
46.262	942.88	0.3570	0.0218
46.270	943.00	0.3571	0.0218
46.278	943.10	0.3565	0.0218
46.287	943.21	0.3561	0.0217
46.295	943.30	0.3559	0.0217
46.303	943.39	0.3556	0.0217
46.312	943.47	0.3556	0.0217
46.320	943.55	0.3561	0.0217
46.328	943.63	0.3569	0.0218
46.337	943.70	0.3573	0.0218
46.345	943.77	0.3558	0.0217
46.353	943.84	0.3544	0.0216
46.362	943.90	0.3546	0.0216
46.370	943.97	0.3550	0.0217
46.378	944.03	0.3554	0.0217
46.387	944.09	0.3557	0.0217
46.395	944.15	0.3562	0.0217
46.403	944.21	0.3558	0.0217
46.412	944.27	0.3551	0.0217
46.420	944.32	0.3549	0.0217
46.428	944.38	0.3545	0.0216
46.437	944.43	0.3540	0.0216
46.445	944.49	0.3544	0.0216
46.453	944.54	0.3546	0.0216
46.462	944.59	0.3547	0.0217
46.470	944.64	0.3542	0.0216
46.478	944.69	0.3543	0.0216
46.487	944.74	0.3547	0.0217
46.495	944.79	0.3541	0.0216
46.503	944.83	0.3541	0.0216
46.512	944.88	0.3550	0.0217
46.520	944.92	0.3547	0.0216
46.528	944.97	0.3545	0.0216
46.537	945.01	0.3545	0.0216
46.545	945.06	0.3542	0.0216
46.553	945.10	0.3544	0.0216
46.562	945.14	0.3548	0.0217
46.570	945.18	0.3541	0.0216
46.578	945.22	0.3536	0.0216
46.587	945.26	0.3538	0.0216
46.595	945.30	0.3537	0.0216
46.603	945.34	0.3543	0.0216
46.612	945.38	0.3543	0.0216
46.620	945.42	0.3542	0.0216
46.628	945.46	0.3539	0.0216
46.637	945.50	0.3532	0.0216
46.645	945.53	0.3531	0.0216
46.653	945.57	0.3545	0.0216
46.662	945.61	0.3560	0.0217
46.670	945.64	0.3553	0.0217
46.678	945.68	0.3554	0.0217
46.687	945.71	0.3563	0.0217
46.695	945.75	0.3567	0.0218
46.703	945.78	0.3569	0.0218
46.712	945.82	0.3564	0.0218
46.720	945.85	0.3568	0.0218
46.728	945.88	0.3575	0.0218
46.737	945.92	0.3567	0.0218
46.745	945.95	0.3556	0.0217
46.753	945.98	0.3548	0.0217
46.762	946.01	0.3543	0.0216
46.770	946.04	0.3536	0.0216
46.778	946.08	0.3537	0.0216
46.787	946.11	0.3537	0.0216
46.795	946.14	0.3535	0.0216
46.803	946.17	0.3534	0.0216
46.812	946.20	0.3530	0.0215
46.820	946.23	0.3526	0.0215
46.828	946.26	0.3519	0.0215
46.837	946.29	0.3514	0.0214
46.845	946.32	0.3514	0.0214
46.853	946.34	0.3514	0.0214
46.862	946.37	0.3516	0.0215
46.870	946.40	0.3517	0.0215
46.878	946.43	0.3518	0.0215
46.887	946.46	0.3515	0.0215
46.895	946.48	0.3516	0.0215
46.903	946.51	0.3524	0.0215
46.912	946.54	0.3528	0.0215
46.920	946.56	0.3525	0.0215
46.928	946.59	0.3534	0.0216
46.937	946.62	0.3544	0.0216
46.945	946.64	0.3544	0.0216
46.953	946.67	0.3536	0.0216
46.962	946.69	0.3526	0.0215
46.970	946.72	0.3523	0.0215
46.978	946.75	0.3521	0.0215
46.987	946.77	0.3515	0.0215
46.995	946.79	0.3524	0.0215
47.003	946.82	0.3524	0.0215
47.012	946.84	0.3521	0.0215
47.020	946.87	0.3518	0.0215
47.028	946.89	0.3523	0.0215
47.037	946.92	0.3519	0.0215
47.045	946.94	0.3512	0.0214
47.053	946.96	0.3514	0.0214
47.062	946.99	0.3526	0.0215
47.070	947.01	0.3532	0.0216
47.078	947.03	0.3531	0.0216
47.087	947.05	0.3530	0.0215
47.095	947.08	0.3535	0.0216
47.103	947.10	0.3542	0.0216
47.112	947.12	0.3542	0.0216
47.120	947.14	0.3542	0.0216
47.128	947.16	0.3540	0.0216
47.137	947.18	0.3544	0.0216
47.145	947.20	0.3552	0.0217
47.153	947.23	0.3551	0.0217
47.162	947.25	0.3541	0.0216
47.170	947.27	0.3542	0.0216
47.178	947.29	0.3553	0.0217
47.187	947.31	0.3560	0.0217
47.195	947.33	0.3559	0.0217
47.203	947.35	0.3546	0.0216
47.212	947.37	0.3545	0.0216
47.220	947.39	0.3562	0.0217
47.228	947.41	0.3561	0.0217
47.237	947.43	0.3542	0.0216
47.245	947.45	0.3540	0.0216
47.253	947.46	0.3545	0.0216
47.262	947.48	0.3539	0.0216
47.270	947.50	0.3535	0.0216
47.278	947.52	0.3541	0.0216
47.287	947.54	0.3544	0.0216
47.295	947.56	0.3543	0.0216
47.303	947.57	0.3536	0.0216
47.312	947.59	0.3534	0.0216
47.320	947.61	0.3538	0.0216
47.328	947.63	0.3544	0.0216
47.337	947.65	0.3548	0.0217
47.345	947.66	0.3547	0.0216
47.353	947.68	0.3549	0.0217
47.362	947.70	0.3544	0.0216
47.370	947.71	0.3548	0.0217
47.378	947.73	0.3550	0.0217
47.387	947.75	0.3547	0.0216
47.395	947.77	0.3546	0.0216
47.403	947.78	0.3549	0.0217
47.412	947.80	0.3548	0.0217
47.420	947.81	0.3550	0.0217
47.428	947.83	0.3553	0.0217
47.437	947.85	0.3552	0.0217
47.445	947.86	0.3547	0.0217
47.453	947.88	0.3548	0.0217
47.462	947.89	0.3547	0.0216
47.470	947.91	0.3549	0.0217
47.478	947.93	0.3552	0.0217
47.487	947.94	0.3545	0.0216
47.495	947.96	0.3537	0.0216
47.503	947.97	0.3539	0.0216
47.512	947.99	0.3550	0.0217
47.520	948.00	0.3544	0.0216
47.528	948.02	0.3540	0.0216
47.537	948.03	0.3544	0.0216
47.545	948.05	0.3549	0.0217
47.553	948.06	0.3550	0.0217
47.562	948.08	0.3544	0.0216
47.570	948.09	0.3542	0.0216
47.578	948.10	0.3541	0.0216
47.587	948.12	0.3540	0.0216
47.595	948.13	0.3538	0.0216
47.603	948.15	0.3534	0.0216
47.612	948.16	0.3533	0.0216
47.620	948.17	0.3532	0.0216
47.628	948.19	0.3537	0.0216
47.637	948.20	0.3540	0.0216
47.645	948.21	0.3540	0.0216
47.653	948.23	0.3548	0.0217
47.662	948.24	0.3553	0.0217
47.670	948.25	0.3562	0.0217
47.678	948.27	0.3554	0.0217
47.687	948.28	0.3555	0.0217
47.695	948.29	0.3555	0.0217
47.703	948.30	0.3550	0.0217
47.712	948.32	0.3538	0.0216
47.720	948.33	0.3540	0.0216
47.728	948.34	0.3546	0.0216
47.737	948.35	0.3557	0.0217
47.745	948.37	0.3553	0.0217
47.753	948.38	0.3546	0.0216
47.762	948.39	0.3558	0.0217
47.770	948.40	0.3556	0.0217
47.778	948.41	0.3550	0.0217
47.787	948.43	0.3551	0.0217
47.795	948.44	0.3546	0.0216
47.803	948.45	0.3552	0.0217
47.812	948.46	0.3556	0.0217
47.820	948.47	0.3543	0.0216
47.828	948.48	0.3540	0.0216
47.837	948.49	0.3543	0.0216
47.845	948.51	0.3540	0.0216
47.853	948.52	0.3545	0.0216
47.862	948.53	0.3555	0.0217
47.870	948.54	0.3554	0.0217
47.878	948.55	0.3550	0.0217
47.887	948.56	0.3544	0.0216
47.895	948.57	0.3544	0.0216
47.903	948.58	0.3545	0.0216
47.912	948.59	0.3544	0.0216
47.920	948.60	0.3543	0.0216
47.928	948.61	0.3548	0.0217
47.937	948.62	0.3548	0.0217
47.945	948.63	0.3542	0.0216
47.953	948.64	0.3546	0.0216
47.962	948.65	0.3545	0.0216
47.970	948.66	0.3546	0.0216
47.978	948.67	0.3545	0.0216
47.987	948.68	0.3545	0.0216
47.995	948.69	0.3558	0.0217
48.003	948.70	0.3566	0.0218
48.012	948.71	0.3553	0.0217
48.020	948.72	0.3542	0.0216
48.028	948.73	0.3543	0.0216
48.037	948.74	0.3542	0.0216
48.045	948.75	0.3541	0.0216
48.053	948.76	0.3541	0.0216
48.062	948.77	0.3541	0.0216
48.070	948.77	0.3540	0.0216
48.078	948.78	0.3547	0.0216
48.087	948.79	0.3550	0.0217
48.095	948.80	0.3555	0.0217
48.103	948.81	0.3561	0.0217
48.112	948.82	0.3558	0.0217
48.120	948.83	0.3563	0.0217
48.128	948.84	0.3574	0.0218
48.137	948.84	0.3569	0.0218
48.145	948.85	0.3563	0.0218
48.153	948.86	0.3561	0.0217
48.162	948.87	0.3564	0.0218
48.170	948.88	0.3567	0.0218
48.178	948.89	0.3566	0.0218
48.187	948.89	0.3562	0.0217
48.195	948.90	0.3559	0.0217
48.203	948.91	0.3548	0.0217
48.212	948.92	0.3555	0.0217
48.220	948.93	0.3555	0.0217
48.228	948.93	0.3551	0.0217
48.237	948.94	0.3555	0.0217
48.245	948.95	0.3564	0.0218
48.253	948.96	0.3561	0.0217
48.262	948.96	0.3559	0.0217
48.270	948.97	0.3556	0.0217
48.278	948.98	0.3560	0.0217
48.287	948.99	0.3557	0.0217
48.295	948.99	0.3545	0.0216
48.303	949.00	0.3551	0.0217
48.312	949.01	0.3559	0.0217
48.320	949.02	0.3574	0.0218
48.328	949.02	0.3581	0.0219
48.337	949.03	0.3569	0.0218
48.345	949.04	0.3556	0.0217
48.353	949.04	0.3556	0.0217
48.362	949.05	0.3557	0.0217
48.370	949.06	0.3562	0.0217
48.378	949.06	0.3564	0.0218
48.387	949.07	0.3564	0.0218
48.395	949.08	0.3556	0.0217
48.403	949.08	0.3551	0.0217
48.412	949.09	0.3546	0.0216
48.420	949.10	0.3547	0.0217
48.428	949.10	0.3545	0.0216
48.437	949.11	0.3558	0.0217
48.445	949.12	0.3566	0.0218
48.453	949.12	0.3555	0.0217
48.462	949.13	0.3548	0.0217
48.470	949.14	0.3554	0.0217
48.478	949.14	0.3566	0.0218
48.487	949.15	0.3567	0.0218
48.495	949.15	0.3557	0.0217
48.503	949.16	0.3549	0.0217
48.512	949.17	0.3546	0.0216
48.520	949.17	0.3545	0.0216
48.528	949.18	0.3546	0.0216
48.537	949.18	0.3545	0.0216
48.545	949.19	0.3543	0.0216
48.553	949.20	0.3541	0.0216
48.562	949.20	0.3541	0.0216
48.570	949.21	0.3544	0.0216
48.578	949.21	0.3542	0.0216
48.587	949.22	0.3540	0.0216
48.595	949.22	0.3544	0.0216
48.603	949.23	0.3550	0.0217
48.612	949.23	0.3555	0.0217
48.620	949.24	0.3552	0.0217
48.628	949.25	0.3547	0.0217
48.637	949.25	0.3546	0.0216
48.645	949.26	0.3545	0.0216
48.653	949.26	0.3552	0.0217
48.662	949.27	0.3548	0.0217
48.670	949.27	0.3542	0.0216
48.678	949.28	0.3542	0.0216
48.687	949.28	0.3541	0.0216
48.695	949.29	0.3545	0.0216
48.703	949.29	0.3548	0.0217
48.712	949.30	0.3541	0.0216
48.720	949.30	0.3534	0.0216
48.728	949.31	0.3535	0.0216
48.737	949.31	0.3534	0.0216
48.745	949.32	0.3534	0.0216
48.753	949.32	0.3535	0.0216
48.762	949.33	0.3537	0.0216
48.770	949.33	0.3538	0.0216
48.778	949.33	0.3540	0.0216
48.787	949.34	0.3538	0.0216
48.795	949.34	0.3537	0.0216
48.803	949.35	0.3537	0.0216
48.812	949.35	0.3534	0.0216
48.820	949.36	0.3533	0.0216
48.828	949.36	0.3536	0.0216
48.837	949.37	0.3540	0.0216
48.845	949.37	0.3542	0.0216
48.853	949.38	0.3539	0.0216
48.862	949.38	0.3536	0.0216
48.870	949.38	0.3534	0.0216
48.878	949.39	0.3538	0.0216
48.887	949.39	0.3543	0.0216
48.895	949.40	0.3551	0.0217
48.903	949.40	0.3545	0.0216
48.912	949.41	0.3547	0.0216
48.920	949.41	0.3548	0.0217
48.928	949.41	0.3550	0.0217
48.937	949.42	0.3542	0.0216
48.945	949.42	0.3538	0.0216
48.953	949.43	0.3540	0.0216
48.962	949.43	0.3546	0.0216
48.970	949.44	0.3545	0.0216
48.978	949.44	0.3545	0.0216
48.987	949.44	0.3546	0.0216
48.995	949.45	0.3547	0.0216
49.003	949.45	0.3540	0.0216
49.012	949.46	0.3533	0.0216
49.020	949.46	0.3534	0.0216
49.028	949.46	0.3538	0.0216
49.037	949.47	0.3542	0.0216
49.045	949.47	0.3538	0.0216
49.053	949.48	0.3539	0.0216
49.062	949.48	0.3537	0.0216
49.070	949.48	0.3543	0.0216
49.078	949.49	0.3546	0.0216
49.087	949.49	0.3536	0.0216
49.095	949.50	0.3558	0.0217
49.103	949.50	0.3569	0.0218
49.112	949.50	0.3554	0.0217
49.120	949.51	0.3539	0.0216
49.128	949.51	0.3534	0.0216
49.137	949.51	0.3533	0.0216
49.145	949.52	0.3535	0.0216
49.153	949.52	0.3539	0.0216
49.162	949.52	0.3538	0.0216
49.170	949.53	0.3541	0.0216
49.178	949.53	0.3541	0.0216
49.187	949.53	0.3544	0.0216
49.195	949.54	0.3539	0.0216
49.203	949.54	0.3541	0.0216
49.212	949.54	0.3541	0.0216
49.220	949.55	0.3538	0.0216
49.228	949.55	0.3537	0.0216
49.237	949.55	0.3535	0.0216
49.245	949.56	0.3538	0.0216
49.253	949.56	0.3544	0.0216
49.262	949.56	0.3549	0.0217
49.270	949.57	0.3543	0.0216
49.278	949.57	0.3535	0.0216
49.287	949.57	0.3531	0.0216
49.295	949.58	0.3538	0.0216
49.303	949.58	0.3534	0.0216
49.312	949.58	0.3530	0.0215
49.320	949.59	0.3533	0.0216
49.328	949.59	0.3535	0.0216
49.337	949.59	0.3536	0.0216
49.345	949.59	0.3537	0.0216
49.353	949.60	0.3534	0.0216
49.362	949.60	0.3534	0.0216
49.370	949.60	0.3536	0.0216
49.378	949.61	0.3533	0.0216
49.387	949.61	0.3529	0.0215
49.395	949.61	0.3533	0.0216
49.403	949.62	0.3536	0.0216
49.412	949.62	0.3537	0.0216
49.420	949.62	0.3533	0.0216
49.428	949.62	0.3530	0.0215
49.437	949.63	0.3529	0.0215
49.445	949.63	0.3526	0.0215
49.453	949.63	0.3521	0.0215
49.462	949.63	0.3521	0.0215
49.470	949.64	0.3525	0.0215
49.478	949.64	0.3522	0.0215
49.487	949.64	0.3519	0.0215
49.495	949.65	0.3521	0.0215
49.503	949.65	0.3519	0.0215
49.512	949.65	0.3519	0.0215
49.520	949.65	0.3520	0.0215
49.528	949.66	0.3526	0.0215
49.537	949.66	0.3528	0.0215
49.545	949.66	0.3530	0.0215
49.553	949.66	0.3527	0.0215
49.562	949.66	0.3525	0.0215
49.570	949.67	0.3522	0.0215
49.578	949.67	0.3528	0.0215
49.587	949.67	0.3542	0.0216
49.595	949.67	0.3543	0.0216
49.603	949.67	0.3536	0.0216
49.612	949.68	0.3529	0.0215
49.620	949.68	0.3521	0.0215
49.628	949.68	0.3520	0.0215
49.637	949.68	0.3521	0.0215
49.645	949.69	0.3525	0.0215
49.653	949.69	0.3529	0.0215
49.662	949.69	0.3526	0.0215
49.670	949.69	0.3529	0.0215
49.678	949.69	0.3524	0.0215
49.687	949.70	0.3523	0.0215
49.695	949.70	0.3529	0.0215
49.703	949.70	0.3528	0.0215
49.712	949.70	0.3525	0.0215
49.720	949.70	0.3539	0.0216
49.728	949.71	0.3545	0.0216
49.737	949.71	0.3548	0.0217
49.745	949.71	0.3548	0.0217
49.753	949.71	0.3552	0.0217
49.762	949.71	0.3547	0.0217
49.770	949.72	0.3542	0.0216
49.778	949.72	0.3539	0.0216
49.787	949.72	0.3535	0.0216
49.795	949.72	0.3538	0.0216
49.803	949.72	0.3538	0.0216
49.812	949.73	0.3534	0.0216
49.820	949.73	0.3535	0.0216
49.828	949.73	0.3542	0.0216
49.837	949.73	0.3549	0.0217
49.845	949.73	0.3545	0.0216
49.853	949.74	0.3550	0.0217
49.862	949.74	0.3547	0.0217
49.870	949.74	0.3548	0.0217
49.878	949.74	0.3547	0.0216
49.887	949.74	0.3548	0.0217
49.895	949.75	0.3548	0.0217
49.903	949.75	0.3545	0.0216
49.912	949.75	0.3548	0.0217
49.920	949.75	0.3544	0.0216
49.928	949.75	0.3543	0.0216
49.937	949.75	0.3535	0.0216
49.945	949.76	0.3530	0.0215
49.953	949.76	0.3530	0.0215
49.962	949.76	0.3523	0.0215
49.970	949.76	0.3519	0.0215
49.978	949.76	0.3523	0.0215
49.987	949.76	0.3531	0.0216
49.995	949.77	0.3533	0.0216
50.003	949.77	0.3532	0.0216
50.012	949.77	0.3533	0.0216
50.020	949.77	0.3535	0.0216
50.028	949.77	0.3538	0.0216
50.037	949.77	0.3541	0.0216
50.045	949.77	0.3541	0.0216
50.053	949.78	0.3537	0.0216
50.062	949.78	0.3539	0.0216
50.070	949.78	0.3537	0.0216
50.078	949.78	0.3531	0.0216
50.087	949.78	0.3529	0.0215
50.095	949.78	0.3526	0.0215
50.103	949.78	0.3526	0.0215
50.112	949.79	0.3533	0.0216
50.120	949.79	0.3534	0.0216
50.128	949.79	0.3538	0.0216
50.137	949.79	0.3539	0.0216
50.145	949.79	0.3531	0.0216
50.153	949.79	0.3528	0.0215
50.162	949.79	0.3526	0.0215
50.170	949.79	0.3524	0.0215
50.178	949.79	0.3521	0.0215
50.187	949.80	0.3516	0.0215
50.195	949.80	0.3521	0.0215
50.203	949.80	0.3536	0.0216
50.212	949.80	0.3533	0.0216
50.220	949.80	0.3521	0.0215
50.228	949.80	0.3522	0.0215
50.237	949.80	0.3525	0.0215
50.245	949.81	0.3528	0.0215
50.253	949.81	0.3521	0.0215
50.262	949.81	0.3525	0.0215
50.270	949.81	0.3528	0.0215
50.278	949.81	0.3532	0.0216
50.287	949.81	0.3530	0.0215
50.295	949.81	0.3527	0.0215
50.303	949.82	0.3550	0.0217
50.312	949.82	0.3551	0.0217
50.320	949.82	0.3536	0.0216
50.328	949.82	0.3534	0.0216
50.337	949.82	0.3534	0.0216
50.345	949.82	0.3528	0.0215
50.353	949.82	0.3526	0.0215
50.362	949.83	0.3526	0.0215
50.370	949.83	0.3529	0.0215
50.378	949.83	0.3530	0.0215
50.387	949.83	0.3528	0.0215
50.395	949.83	0.3530	0.0215
50.403	949.83	0.3538	0.0216
50.412	949.83	0.3535	0.0216
50.420	949.83	0.3524	0.0215
50.428	949.84	0.3523	0.0215
50.437	949.84	0.3526	0.0215
50.445	949.84	0.3518	0.0215
50.453	949.84	0.3515	0.0215
50.462	949.84	0.3516	0.0215
50.470	949.84	0.3512	0.0214
50.478	949.84	0.3509	0.0214
50.487	949.84	0.3509	0.0214
50.495	949.84	0.3512	0.0214
50.503	949.85	0.3515	0.0215
50.512	949.85	0.3514	0.0214
50.520	949.85	0.3515	0.0215
50.528	949.85	0.3521	0.0215
50.537	949.85	0.3527	0.0215
50.545	949.85	0.3526	0.0215
50.553	949.85	0.3523	0.0215
50.562	949.85	0.3525	0.0215
50.570	949.86	0.3525	0.0215
50.578	949.86	0.3534	0.0216
50.587	949.86	0.3532	0.0216
50.595	949.86	0.3533	0.0216
50.603	949.86	0.3527	0.0215
50.612	949.86	0.3527	0.0215
50.620	949.86	0.3527	0.0215
50.628	949.86	0.3524	0.0215
50.637	949.86	0.3531	0.0216
50.645	949.87	0.3541	0.0216
50.653	949.87	0.3533	0.0216
50.662	949.87	0.3522	0.0215
50.670	949.87	0.3514	0.0215
50.678	949.87	0.3510	0.0214
50.687	949.87	0.3506	0.0214
50.695	949.87	0.3505	0.0214
50.703	949.87	0.3503	0.0214
50.712	949.87	0.3502	0.0214
50.720	949.87	0.3505	0.0214
50.728	949.88	0.3503	0.0214
50.737	949.88	0.3502	0.0214
50.745	949.88	0.3503	0.0214
50.753	949.88	0.3508	0.0214
50.762	949.88	0.3509	0.0214
50.770	949.88	0.3510	0.0214
50.778	949.88	0.3511	0.0214
50.787	949.88	0.3514	0.0214
50.795	949.88	0.3515	0.0215
50.803	949.88	0.3512	0.0214
50.812	949.88	0.3508	0.0214
50.820	949.88	0.3504	0.0214
50.828	949.88	0.3502	0.0214
50.837	949.88	0.3500	0.0214
50.845	949.88	0.3505	0.0214
50.853	949.89	0.3502	0.0214
50.862	949.89	0.3502	0.0214
50.870	949.89	0.3508	0.0214
50.878	949.89	0.3506	0.0214
50.887	949.89	0.3500	0.0214
50.895	949.89	0.3499	0.0214
50.903	949.89	0.3499	0.0214
50.912	949.89	0.3507	0.0214
50.920	949.89	0.3508	0.0214
50.928	949.89	0.3510	0.0214
50.937	949.89	0.3519	0.0215
50.945	949.89	0.3514	0.0214
50.953	949.89	0.3505	0.0214
50.962	949.89	0.3506	0.0214
50.970	949.90	0.3507	0.0214
50.978	949.90	0.3506	0.0214
50.987	949.90	0.3503	0.0214
50.995	949.90	0.3507	0.0214
51.003	949.90	0.3510	0.0214
51.012	949.90	0.3505	0.0214
51.020	949.90	0.3501	0.0214
51.028	949.90	0.3500	0.0214
51.037	949.90	0.3496	0.0213
51.045	949.90	0.3498	0.0214
51.053	949.90	0.3502	0.0214
51.062	949.90	0.3495	0.0213
51.070	949.90	0.3490	0.0213
51.078	949.91	0.3497	0.0213
51.087	949.91	0.3501	0.0214
51.095	949.91	0.3498	0.0214
51.103	949.91	0.3497	0.0213
51.112	949.91	0.3497	0.0213
51.120	949.91	0.3499	0.0214
51.128	949.91	0.3502	0.0214
51.137	949.91	0.3502	0.0214
51.145	949.91	0.3500	0.0214
51.153	949.91	0.3500	0.0214
51.162	949.91	0.3502	0.0214
51.170	949.91	0.3501	0.0214
51.178	949.91	0.3497	0.0213
51.187	949.91	0.3494	0.0213
51.195	949.91	0.3492	0.0213
51.203	949.91	0.3492	0.0213
51.212	949.91	0.3496	0.0213
51.220	949.91	0.3499	0.0214
51.228	949.91	0.3494	0.0213
51.237	949.92	0.3490	0.0213
51.245	949.92	0.3494	0.0213
51.253	949.92	0.3496	0.0213
51.262	949.92	0.3502	0.0214
51.270	949.92	0.3507	0.0214
51.278	949.92	0.3507	0.0214
51.287	949.92	0.3504	0.0214
51.295	949.92	0.3499	0.0214
51.303	949.92	0.3500	0.0214
51.312	949.92	0.3514	0.0214
51.320	949.92	0.3518	0.0215
51.328	949.92	0.3502	0.0214
51.337	949.92	0.3498	0.0214
51.345	949.92	0.3498	0.0214
51.353	949.92	0.3502	0.0214
51.362	949.92	0.3501	0.0214
51.370	949.92	0.3500	0.0214
51.378	949.92	0.3498	0.0214
51.387	949.93	0.3496	0.0213
51.395	949.93	0.3505	0.0214
51.403	949.93	0.3505	0.0214
51.412	949.93	0.3501	0.0214
51.420	949.93	0.3500	0.0214
51.428	949.93	0.3500	0.0214
51.437	949.93	0.3503	0.0214
51.445	949.93	0.3496	0.0213
51.453	949.93	0.3499	0.0214
51.462	949.93	0.3506	0.0214
51.470	949.93	0.3500	0.0214
51.478	949.93	0.3494	0.0213
51.487	949.93	0.3497	0.0213
51.495	949.93	0.3502	0.0214
51.503	949.93	0.3505	0.0214
51.512	949.93	0.3506	0.0214
51.520	949.93	0.3505	0.0214
51.528	949.94	0.3510	0.0214
51.537	949.94	0.3515	0.0215
51.545	949.94	0.3515	0.0215
51.553	949.94	0.3509	0.0214
51.562	949.94	0.3507	0.0214
51.570	949.94	0.3506	0.0214
51.578	949.94	0.3508	0.0214
51.587	949.94	0.3506	0.0214
51.595	949.94	0.3508	0.0214
51.603	949.94	0.3516	0.0215
51.612	949.94	0.3508	0.0214
51.620	949.94	0.3505	0.0214
51.628	949.94	0.3508	0.0214
51.637	949.94	0.3515	0.0215
51.645	949.94	0.3509	0.0214
51.653	949.94	0.3501	0.0214
51.662	949.94	0.3504	0.0214
51.670	949.94	0.3506	0.0214
51.678	949.94	0.3510	0.0214
51.687	949.94	0.3517	0.0215
51.695	949.94	0.3516	0.0215
51.703	949.94	0.3511	0.0214
51.712	949.94	0.3506	0.0214
51.720	949.94	0.3501	0.0214
51.728	949.94	0.3500	0.0214
51.737	949.94	0.3503	0.0214
51.745	949.94	0.3504	0.0214
51.753	949.94	0.3505	0.0214
51.762	949.94	0.3501	0.0214
51.770	949.94	0.3496	0.0213
51.778	949.95	0.3496	0.0213
51.787	949.95	0.3495	0.0213
51.795	949.95	0.3497	0.0213
51.803	949.95	0.3499	0.0214
51.812	949.95	0.3502	0.0214
51.820	949.95	0.3509	0.0214
51.828	949.95	0.3505	0.0214
51.837	949.95	0.3496	0.0213
51.845	949.95	0.3495	0.0213
51.853	949.95	0.3501	0.0214
51.862	949.95	0.3501	0.0214
51.870	949.95	0.3504	0.0214
51.878	949.95	0.3505	0.0214
51.887	949.95	0.3505	0.0214
51.895	949.95	0.3509	0.0214
51.903	949.95	0.3516	0.0215
51.912	949.95	0.3516	0.0215
51.920	949.95	0.3512	0.0214
51.928	949.95	0.3512	0.0214
51.937	949.95	0.3514	0.0214
51.945	949.95	0.3514	0.0215
51.953	949.95	0.3516	0.0215
51.962	949.95	0.3515	0.0215
51.970	949.95	0.3518	0.0215
51.978	949.95	0.3517	0.0215
51.987	949.95	0.3519	0.0215
51.995	949.95	0.3518	0.0215
52.003	949.95	0.3519	0.0215
52.012	949.95	0.3516	0.0215
52.020	949.95	0.3518	0.0215
52.028	949.95	0.3513	0.0214
52.037	949.95	0.3507	0.0214
52.045	949.95	0.3503	0.0214
52.053	949.95	0.3509	0.0214
52.062	949.95	0.3503	0.0214
52.070	949.95	0.3497	0.0213
52.078	949.95	0.3501	0.0214
52.087	949.95	0.3502	0.0214
52.095	949.95	0.3503	0.0214
52.103	949.95	0.3506	0.0214
52.112	949.95	0.3512	0.0214
52.120	949.96	0.3504	0.0214
52.128	949.96	0.3504	0.0214
52.137	949.96	0.3504	0.0214
52.145	949.96	0.3500	0.0214
52.153	949.96	0.3494	0.0213
52.162	949.96	0.3496	0.0213
52.170	949.96	0.3498	0.0213
52.178	949.96	0.3501	0.0214
52.187	949.96	0.3510	0.0214
52.195	949.96	0.3508	0.0214
52.203	949.96	0.3504	0.0214
52.212	949.96	0.3502	0.0214
52.220	949.96	0.3500	0.0214
52.228	949.96	0.3497	0.0213
52.237	949.96	0.3494	0.0213
52.245	949.96	0.3496	0.0213
52.253	949.96	0.3498	0.0213
52.262	949.96	0.3497	0.0213
52.270	949.96	0.3495	0.0213
52.278	949.96	0.3492	0.0213
52.287	949.96	0.3487	0.0213
52.295	949.96	0.3485	0.0213
52.303	949.96	0.3484	0.0213
52.312	949.96	0.3491	0.0213
52.320	949.96	0.3493	0.0213
52.328	949.96	0.3490	0.0213
52.337	949.96	0.3487	0.0213
52.345	949.96	0.3484	0.0213
52.353	949.96	0.3485	0.0213
52.362	949.96	0.3482	0.0213
52.370	949.96	0.3479	0.0212
52.378	949.96	0.3479	0.0212
52.387	949.96	0.3479	0.0212
52.395	949.96	0.3484	0.0213
52.403	949.96	0.3484	0.0213
52.412	949.96	0.3483	0.0213
52.420	949.96	0.3483	0.0213
52.428	949.97	0.3485	0.0213
52.437	949.97	0.3485	0.0213
52.445	949.97	0.3484	0.0213
52.453	949.97	0.3484	0.0213
52.462	949.97	0.3486	0.0213
52.470	949.97	0.3498	0.0213
52.478	949.97	0.3492	0.0213
52.487	949.97	0.3487	0.0213
52.495	949.97	0.3488	0.0213
52.503	949.97	0.3488	0.0213
52.512	949.97	0.3487	0.0213
52.520	949.97	0.3490	0.0213
52.528	949.97	0.3485	0.0213
52.537	949.97	0.3483	0.0213
52.545	949.97	0.3484	0.0213
52.553	949.97	0.3490	0.0213
52.562	949.97	0.3495	0.0213
52.570	949.97	0.3495	0.0213
52.578	949.97	0.3495	0.0213
52.587	949.97	0.3499	0.0214
52.595	949.97	0.3496	0.0213
52.603	949.97	0.3505	0.0214
52.612	949.97	0.3503	0.0214
52.620	949.97	0.3496	0.0213
52.628	949.97	0.3493	0.0213
52.637	949.97	0.3492	0.0213
52.645	949.97	0.3496	0.0213
52.653	949.97	0.3501	0.0214
52.662	949.97	0.3497	0.0213
52.670	949.97	0.3489	0.0213
52.678	949.97	0.3484	0.0213
52.687	949.97	0.3487	0.0213
52.695	949.97	0.3493	0.0213
52.703	949.97	0.3490	0.0213
52.712	949.97	0.3489	0.0213
52.720	949.97	0.3488	0.0213
52.728	949.97	0.3483	0.0213
52.737	949.97	0.3482	0.0213
52.745	949.97	0.3482	0.0213
52.753	949.97	0.3480	0.0212
52.762	949.97	0.3484	0.0213
52.770	949.97	0.3483	0.0213
52.778	949.98	0.3489	0.0213
52.787	949.98	0.3493	0.0213
52.795	949.98	0.3490	0.0213
52.803	949.98	0.3481	0.0212
52.812	949.98	0.3479	0.0212
52.820	949.98	0.3482	0.0213
52.828	949.98	0.3493	0.0213
52.837	949.98	0.3510	0.0214
52.845	949.98	0.3509	0.0214
52.853	949.98	0.3509	0.0214
52.862	949.98	0.3508	0.0214
52.870	949.98	0.3507	0.0214
52.878	949.98	0.3502	0.0214
52.887	949.98	0.3497	0.0213
52.895	949.98	0.3500	0.0214
52.903	949.98	0.3508	0.0214
52.912	949.98	0.3512	0.0214
52.920	949.98	0.3521	0.0215
52.928	949.98	0.3521	0.0215
52.937	949.98	0.3510	0.0214
52.945	949.98	0.3504	0.0214
52.953	949.98	0.3510	0.0214
52.962	949.98	0.3515	0.0215
52.970	949.98	0.3511	0.0214
52.978	949.98	0.3509	0.0214
52.987	949.98	0.3506	0.0214
52.995	949.98	0.3504	0.0214
53.003	949.98	0.3499	0.0214
53.012	949.98	0.3502	0.0214
53.020	949.98	0.3502	0.0214
53.028	949.98	0.3502	0.0214
53.037	949.98	0.3500	0.0214
53.045	949.98	0.3502	0.0214
53.053	949.98	0.3503	0.0214
53.062	949.98	0.3500	0.0214
53.070	949.98	0.3500	0.0214
53.078	949.98	0.3495	0.0213
53.087	949.98	0.3490	0.0213
53.095	949.98	0.3492	0.0213
53.103	949.98	0.3494	0.0213
53.112	949.98	0.3501	0.0214
53.120	949.98	0.3517	0.0215
53.128	949.98	0.3524	0.0215
53.137	949.98	0.3521	0.0215
53.145	949.98	0.3512	0.0214
53.153	949.98	0.3504	0.0214
53.162	949.98	0.3498	0.0214
53.170	949.98	0.3492	0.0213
53.178	949.98	0.3491	0.0213
53.187	949.98	0.3498	0.0214
53.195	949.98	0.3499	0.0214
53.203	949.98	0.3499	0.0214
53.212	949.98	0.3504	0.0214
53.220	949.98	0.3503	0.0214
53.228	949.98	0.3499	0.0214
53.237	949.98	0.3496	0.0213
53.245	949.98	0.3499	0.0214
53.253	949.98	0.3504	0.0214
53.262	949.98	0.3499	0.0214
53.270	949.98	0.3495	0.0213
53.278	949.98	0.3494	0.0213
53.287	949.98	0.3491	0.0213
53.295	949.98	0.3484	0.0213
53.303	949.98	0.3485	0.0213
53.312	949.98	0.3488	0.0213
53.320	949.98	0.3494	0.0213
53.328	949.98	0.3492	0.0213
53.337	949.98	0.3493	0.0213
53.345	949.98	0.3493	0.0213
53.353	949.98	0.3497	0.0213
53.362	949.98	0.3509	0.0214
53.370	949.98	0.3506	0.0214
53.378	949.98	0.3497	0.0213
53.387	949.98	0.3494	0.0213
53.395	949.98	0.3498	0.0214
53.403	949.98	0.3500	0.0214
53.412	949.98	0.3499	0.0214
53.420	949.98	0.3490	0.0213
53.428	949.98	0.3485	0.0213
53.437	949.98	0.3485	0.0213
53.445	949.98	0.3484	0.0213
53.453	949.98	0.3481	0.0212
53.462	949.98	0.3478	0.0212
53.470	949.98	0.3481	0.0212
53.478	949.98	0.3486	0.0213
53.487	949.98	0.3492	0.0213
53.495	949.98	0.3504	0.0214
53.503	949.98	0.3509	0.0214
53.512	949.98	0.3487	0.0213
53.520	949.98	0.3477	0.0212
53.528	949.98	0.3483	0.0213
53.537	949.98	0.3492	0.0213
53.545	949.98	0.3495	0.0213
53.553	949.98	0.3487	0.0213
53.562	949.98	0.3481	0.0212
53.570	949.98	0.3476	0.0212
53.578	949.98	0.3480	0.0212
53.587	949.98	0.3487	0.0213
53.595	949.98	0.3491	0.0213
53.603	949.98	0.3485	0.0213
53.612	949.98	0.3482	0.0213
53.620	949.98	0.3478	0.0212
53.628	949.98	0.3474	0.0212
53.637	949.98	0.3471	0.0212
53.645	949.98	0.3480	0.0212
53.653	949.98	0.3479	0.0212
53.662	949.98	0.3474	0.0212
53.670	949.98	0.3479	0.0212
53.678	949.98	0.3482	0.0213
53.687	949.98	0.3488	0.0213
53.695	949.98	0.3485	0.0213
53.703	949.99	0.3486	0.0213
53.712	949.99	0.3481	0.0212
53.720	949.99	0.3471	0.0212
53.728	949.99	0.3465	0.0211
53.737	949.99	0.3461	0.0211
53.745	949.99	0.3463	0.0211
53.753	949.99	0.3479	0.0212
53.762	949.99	0.3483	0.0213
53.770	949.99	0.3480	0.0212
53.778	949.99	0.3474	0.0212
53.787	949.99	0.3475	0.0212
53.795	949.99	0.3483	0.0213
53.803	949.99	0.3490	0.0213
53.812	949.99	0.3486	0.0213
53.820	949.99	0.3480	0.0212
53.828	949.99	0.3473	0.0212
53.837	949.99	0.3477	0.0212
53.845	949.99	0.3479	0.0212
53.853	949.99	0.3483	0.0213
53.862	949.99	0.3489	0.0213
53.870	949.99	0.3482	0.0213
53.878	949.99	0.3481	0.0212
53.887	949.99	0.3484	0.0213
53.895	949.99	0.3479	0.0212
53.903	949.99	0.3474	0.0212
53.912	949.99	0.3467	0.0212
53.920	949.99	0.3465	0.0212
53.928	949.99	0.3471	0.0212
53.937	949.99	0.3478	0.0212
53.945	949.99	0.3484	0.0213
53.953	949.99	0.3488	0.0213
53.962	949.99	0.3493	0.0213
53.970	949.99	0.3489	0.0213
53.978	949.99	0.3488	0.0213
53.987	949.99	0.3489	0.0213
53.995	949.99	0.3488	0.0213
54.003	949.99	0.3484	0.0213
54.012	949.99	0.3484	0.0213
54.020	949.99	0.3485	0.0213
54.028	949.99	0.3477	0.0212
54.037	949.99	0.3477	0.0212
54.045	949.99	0.3478	0.0212
54.053	949.99	0.3474	0.0212
54.062	949.99	0.3469	0.0212
54.070	949.99	0.3466	0.0212
54.078	949.99	0.3466	0.0212
54.087	949.99	0.3466	0.0212
54.095	949.99	0.3473	0.0212
54.103	950.00	0.3473	0.0212
54.112	950.00	0.3471	0.0212
54.120	950.00	0.3469	0.0212
54.128	950.00	0.3473	0.0212
54.137	950.00	0.3479	0.0212
54.145	950.00	0.3479	0.0212
54.153	950.00	0.3477	0.0212
54.162	950.00	0.3474	0.0212
54.170	950.00	0.3475	0.0212
54.178	950.00	0.3476	0.0212
54.187	950.00	0.3477	0.0212
54.195	950.00	0.3474	0.0212
54.203	950.00	0.3468	0.0212
54.212	950.00	0.3462	0.0211
54.220	950.00	0.3462	0.0211
54.228	950.00	0.3466	0.0212
54.237	950.00	0.3475	0.0212
54.245	950.00	0.3472	0.0212
54.253	950.00	0.3478	0.0212
54.262	950.00	0.3494	0.0213
54.270	950.00	0.3498	0.0214
54.278	950.00	0.3486	0.0213
54.287	950.00	0.3475	0.0212
54.295	950.00	0.3472	0.0212
54.303	950.00	0.3473	0.0212
54.312	950.00	0.3477	0.0212
54.320	950.00	0.3484	0.0213
54.328	950.00	0.3482	0.0213
54.337	950.00	0.3478	0.0212
54.345	950.00	0.3478	0.0212
54.353	950.00	0.3480	0.0212
54.362	950.00	0.3478	0.0212
54.370	950.00	0.3480	0.0212
54.378	950.00	0.3481	0.0212
54.387	950.00	0.3482	0.0213
54.395	950.00	0.3482	0.0213
54.403	950.00	0.3479	0.0212
54.412	950.00	0.3474	0.0212
54.420	950.00	0.3472	0.0212
54.428	950.00	0.3477	0.0212
54.437	950.00	0.3477	0.0212
54.445	950.00	0.3471	0.0212
54.453	950.00	0.3474	0.0212
54.462	950.00	0.3483	0.0213
54.470	950.00	0.3482	0.0213
54.478	950.00	0.3472	0.0212
54.487	950.00	0.3470	0.0212
54.495	950.00	0.3472	0.0212
54.503	950.00	0.3470	0.0212
54.512	950.00	0.3472	0.0212
54.520	950.00	0.3480	0.0212
54.528	950.00	0.3476	0.0212
54.537	950.00	0.3477	0.0212
54.545	950.00	0.3477	0.0212
54.553	950.00	0.3474	0.0212
54.562	950.00	0.3472	0.0212
54.570	950.00	0.3471	0.0212
54.578	950.00	0.3477	0.0212
54.587	950.00	0.3472	0.0212
54.595	950.00	0.3472	0.0212
54.603	950.00	0.3471	0.0212
54.612	950.00	0.3472	0.0212
54.620	950.00	0.3475	0.0212
54.628	950.00	0.3474	0.0212
54.637	950.00	0.3479	0.0212
54.645	950.00	0.3489	0.0213
54.653	950.00	0.3486	0.0213
54.662	950.00	0.3481	0.0212
54.670	950.00	0.3478	0.0212
54.678	950.00	0.3476	0.0212
54.687	950.00	0.3474	0.0212
54.695	950.00	0.3473	0.0212
54.703	950.00	0.3473	0.0212
54.712	950.00	0.3465	0.0211
54.720	950.00	0.3463	0.0211
54.728	950.00	0.3471	0.0212
54.737	950.00	0.3471	0.0212
54.745	950.00	0.3476	0.0212
54.753	950.00	0.3479	0.0212
54.762	950.00	0.3476	0.0212
54.770	950.00	0.3479	0.0212
54.778	950.00	0.3476	0.0212
54.787	950.00	0.3469	0.0212
54.795	950.00	0.3473	0.0212
54.803	950.00	0.3476	0.0212
54.812	950.00	0.3481	0.0212
54.820	950.00	0.3476	0.0212
54.828	950.00	0.3474	0.0212
54.837	950.00	0.3476	0.0212
54.845	950.00	0.3472	0.0212
54.853	950.00	0.3474	0.0212
54.862	950.00	0.3484	0.0213
54.870	950.00	0.3484	0.0213
54.878	950.00	0.3481	0.0212
54.887	950.00	0.3473	0.0212
54.895	950.00	0.3468	0.0212
54.903	950.00	0.3465	0.0211
54.912	950.00	0.3465	0.0211
54.920	950.00	0.3465	0.0212
54.928	950.00	0.3461	0.0211
54.937	950.00	0.3471	0.0212
54.945	950.00	0.3474	0.0212
54.953	950.00	0.3469	0.0212
54.962	950.00	0.3466	0.0212
54.970	950.00	0.3466	0.0212
54.978	950.00	0.3478	0.0212
54.987	950.00	0.3484	0.0213
54.995	950.00	0.3482	0.0213
55.003	950.00	0.3478	0.0212
55.012	950.00	0.3479	0.0212
55.020	950.00	0.3477	0.0212
55.028	950.00	0.3479	0.0212
55.037	950.00	0.3480	0.0212
55.045	950.00	0.3473	0.0212
55.053	950.00	0.3473	0.0212
55.062	950.00	0.3483	0.0213
55.070	950.00	0.3482	0.0213
55.078	950.00	0.3476	0.0212
55.087	950.00	0.3472	0.0212
55.095	950.00	0.3479	0.0212
55.103	950.00	0.3482	0.0213
55.112	950.00	0.3494	0.0213
55.120	950.00	0.3496	0.0213
55.128	950.00	0.3487	0.0213
55.137	950.00	0.3480	0.0212
55.145	950.00	0.3473	0.0212
55.153	950.00	0.3472	0.0212
55.162	950.00	0.3471	0.0212
55.170	950.00	0.3470	0.0212
55.178	950.00	0.3469	0.0212
55.187	950.00	0.3462	0.0211
55.195	950.00	0.3455	0.0211
55.203	950.00	0.3464	0.0211
55.212	950.00	0.3463	0.0211
55.220	950.00	0.3464	0.0211
55.228	950.00	0.3459	0.0211
55.237	950.00	0.3451	0.0211
55.245	950.00	0.3448	0.0210
55.253	950.00	0.3454	0.0211
55.262	950.00	0.3462	0.0211
55.270	950.00	0.3465	0.0211
55.278	950.00	0.3471	0.0212
55.287	950.00	0.3471	0.0212
55.295	950.00	0.3472	0.0212
55.303	950.00	0.3485	0.0213
55.312	950.00	0.3485	0.0213
55.320	950.00	0.3489	0.0213
55.328	950.00	0.3488	0.0213
55.337	950.00	0.3484	0.0213
55.345	950.00	0.3477	0.0212
55.353	950.00	0.3469	0.0212
55.362	950.00	0.3464	0.0211
55.370	950.00	0.3469	0.0212
55.378	950.00	0.3471	0.0212
55.387	950.00	0.3473	0.0212
55.395	950.00	0.3473	0.0212
55.403	950.00	0.3462	0.0211
55.412	950.00	0.3461	0.0211
55.420	950.00	0.3471	0.0212
55.428	950.00	0.3466	0.0212
55.437	950.00	0.3462	0.0211
55.445	950.00	0.3466	0.0212
55.453	950.00	0.3471	0.0212
55.462	950.00	0.3483	0.0213
55.470	950.00	0.3484	0.0213
55.478	950.00	0.3492	0.0213
55.487	950.00	0.3488	0.0213
55.495	950.00	0.3481	0.0212
55.503	950.00	0.3479	0.0212
55.512	950.00	0.3476	0.0212
55.520	950.00	0.3467	0.0212
55.528	950.00	0.3464	0.0211
55.537	950.00	0.3461	0.0211
55.545	950.00	0.3464	0.0211
55.553	950.00	0.3463	0.0211
55.562	950.00	0.3462	0.0211
55.570	950.00	0.3463	0.0211
55.578	950.00	0.3470	0.0212
55.587	950.00	0.3466	0.0212
55.595	950.00	0.3465	0.0211
55.603	950.00	0.3464	0.0211
55.612	950.00	0.3467	0.0212
55.620	950.00	0.3473	0.0212
55.628	950.00	0.3478	0.0212
55.637	950.00	0.3475	0.0212
55.645	950.00	0.3471	0.0212
55.653	950.00	0.3474	0.0212
55.662	950.00	0.3473	0.0212
55.670	950.00	0.3472	0.0212
55.678	950.00	0.3464	0.0211
55.687	950.00	0.3465	0.0212
55.695	950.00	0.3465	0.0212
55.703	950.00	0.3472	0.0212
55.712	950.00	0.3466	0.0212
55.720	950.00	0.3456	0.0211
55.728	950.00	0.3459	0.0211
55.737	950.00	0.3460	0.0211
55.745	950.00	0.3460	0.0211
55.753	950.00	0.3455	0.0211
55.762	950.00	0.3455	0.0211
55.770	950.00	0.3459	0.0211
55.778	950.00	0.3461	0.0211
55.787	950.00	0.3463	0.0211
55.795	950.00	0.3456	0.0211
55.803	950.00	0.3452	0.0211
55.812	950.00	0.3460	0.0211
55.820	950.00	0.3470	0.0212
55.828	950.00	0.3470	0.0212
55.837	950.00	0.3472	0.0212
55.845	950.00	0.3476	0.0212
55.853	950.00	0.3475	0.0212
55.862	950.00	0.3473	0.0212
55.870	950.00	0.3467	0.0212
55.878	950.00	0.3464	0.0211
55.887	950.00	0.3476	0.0212
55.895	950.00	0.3483	0.0213
55.903	950.00	0.3476	0.0212
55.912	950.00	0.3468	0.0212
55.920	950.00	0.3468	0.0212
55.928	950.00	0.3468	0.0212
55.937	950.00	0.3471	0.0212
55.945	950.00	0.3473	0.0212
55.953	950.00	0.3469	0.0212
55.962	950.00	0.3463	0.0211
55.970	950.00	0.3467	0.0212
55.978	950.00	0.3469	0.0212
55.987	950.00	0.3464	0.0211
55.995	950.00	0.3459	0.0211
56.003	950.00	0.3469	0.0212
56.012	950.00	0.3466	0.0212
56.020	950.00	0.3459	0.0211
56.028	950.00	0.3461	0.0211
56.037	950.00	0.3469	0.0212
56.045	950.00	0.3471	0.0212
56.053	950.00	0.3470	0.0212

